COUNTER,INTERPOLATED,AF3,F7,F3,FC5,T7,P7,O1,O2,P8,T8,FC6,F4,F8,AF4,RAW_CQ,GYROX,GYROY,MARKER,SYNC,CQ_AF3,CQ_F7,CQ_F3,CQ_FC5,CQ_T7,CQ_P7,CQ_O1,CQ_O2,CQ_P8,CQ_T8,CQ_FC6,CQ_F4,CQ_F8,CQ_AF4,CQ_CMS,CQ_DRL
111.0,0.0,4213.333333333335,4144.102564102565,4216.923076923078,4167.692307692309,4200.512820512822,4173.846153846155,4210.256410256412,4198.97435897436,4200.512820512822,4185.128205128207,3792.3076923076937,4217.94871794872,4231.794871794873,4201.0256410256425,845.0,2047.0,2048.0,0.0,0.0,0.0,0.0,0.0,0.0,0.0,0.0,0.0,0.0,0.0,0.0,0.0,0.0,0.0,0.0,0.0,0.0
112.0,0.0,4212.307692307694,4152.307692307694,4208.71794871795,4168.71794871795,4192.8205128205145,4173.333333333335,4209.743589743592,4200.512820512822,4215.897435897437,4185.128205128207,3887.1794871794887,4210.256410256412,4248.20512820513,4186.153846153848,858.0,2047.0,2048.0,0.0,0.0,0.0,0.0,0.0,0.0,0.0,0.0,0.0,0.0,0.0,0.0,0.0,0.0,0.0,0.0,0.0,0.0
113.0,0.0,4220.512820512822,4160.000000000002,4192.8205128205145,4174.3589743589755,4172.307692307694,4168.71794871795,4183.589743589745,4202.564102564104,4223.589743589745,4185.128205128207,3863.0769230769247,4226.666666666668,4195.897435897437,4239.487179487181,88.0,2047.0,2048.0,0.0,0.0,0.0,0.0,0.0,0.0,0.0,0.0,0.0,0.0,0.0,0.0,0.0,0.0,0.0,0.0,0.0,0.0
114.0,0.0,4222.051282051283,4154.3589743589755,4190.769230769232,4175.384615384617,4164.615384615386,4163.076923076925,4176.410256410258,4207.179487179489,4209.743589743592,4185.128205128207,3794.8717948717963,4248.20512820513,4080.512820512822,4295.897435897437,881.0,2047.0,2048.0,0.0,0.0,0.0,0.0,0.0,0.0,0.0,0.0,0.0,0.0,0.0,0.0,0.0,0.0,0.0,0.0,0.0,0.0
115.0,0.0,4218.46153846154,4151.794871794873,4207.692307692309,4173.333333333335,4183.589743589745,4170.256410256412,4193.333333333335,4210.256410256412,4202.564102564104,4185.128205128207,3910.7692307692323,4241.0256410256425,4050.7692307692323,4260.512820512822,845.0,2047.0,2048.0,0.0,0.0,0.0,0.0,0.0,0.0,0.0,0.0,0.0,0.0,0.0,0.0,0.0,0.0,0.0,0.0,0.0,0.0
116.0,0.0,4213.846153846155,4153.846153846155,4216.923076923078,4177.435897435899,4201.0256410256425,4183.589743589745,4204.615384615386,4190.256410256412,4202.051282051283,4185.128205128207,4090.256410256412,4203.589743589745,4155.897435897437,4169.23076923077,858.0,2047.0,2048.0,0.0,0.0,0.0,0.0,0.0,0.0,0.0,0.0,0.0,0.0,0.0,0.0,0.0,0.0,0.0,0.0,0.0,0.0
117.0,0.0,4214.3589743589755,4148.20512820513,4219.487179487181,4180.000000000002,4199.487179487181,4177.94871794872,4200.512820512822,4178.46153846154,4187.692307692309,4185.128205128207,3999.487179487181,4209.743589743592,4122.564102564104,4191.282051282053,88.0,2047.0,2048.0,0.0,0.0,0.0,0.0,0.0,0.0,0.0,0.0,0.0,0.0,0.0,0.0,0.0,0.0,0.0,0.0,0.0,0.0
118.0,0.0,4218.97435897436,4150.256410256412,4210.769230769232,4179.487179487181,4182.564102564104,4167.692307692309,4188.20512820513,4194.871794871797,4182.564102564104,4185.128205128207,3958.9743589743607,4233.846153846155,4025.641025641027,4246.666666666668,881.0,2047.0,2048.0,0.0,0.0,0.0,0.0,0.0,0.0,0.0,0.0,0.0,0.0,0.0,0.0,0.0,0.0,0.0,0.0,0.0,0.0
119.0,0.0,4206.666666666668,4152.8205128205145,4178.97435897436,4170.769230769232,4168.20512820513,4170.769230769232,4182.051282051283,4194.3589743589755,4200.512820512822,4185.128205128207,4198.97435897436,4202.564102564104,4166.666666666668,4163.076923076925,845.0,2047.0,2048.0,0.0,0.0,0.0,0.0,0.0,0.0,0.0,0.0,0.0,0.0,0.0,0.0,0.0,0.0,0.0,0.0,0.0,0.0
120.0,0.0,4190.256410256412,4141.0256410256425,4174.871794871797,4156.923076923078,4181.538461538463,4166.153846153848,4185.128205128207,4179.487179487181,4211.794871794873,4185.128205128207,4275.384615384617,4190.769230769232,4316.923076923078,4107.692307692309,858.0,2047.0,2048.0,0.0,0.0,0.0,0.0,0.0,0.0,0.0,0.0,0.0,0.0,0.0,0.0,0.0,0.0,0.0,0.0,0.0,0.0
121.0,0.0,4195.897435897437,4138.46153846154,4197.435897435899,4157.94871794872,4192.307692307694,4158.46153846154,4194.3589743589755,4188.20512820513,4211.794871794873,4185.128205128207,4171.282051282053,4220.000000000002,4309.743589743592,4193.846153846155,88.0,2047.0,2048.0,0.0,0.0,0.0,0.0,0.0,0.0,0.0,0.0,0.0,0.0,0.0,0.0,0.0,0.0,0.0,0.0,0.0,0.0
122.0,0.0,4204.615384615386,4154.871794871797,4205.641025641027,4170.256410256412,4188.71794871795,4165.641025641027,4203.076923076925,4189.743589743592,4214.3589743589755,4185.128205128207,4265.128205128207,4213.846153846155,4409.23076923077,4200.000000000002,881.0,2047.0,2048.0,0.0,0.0,0.0,0.0,0.0,0.0,0.0,0.0,0.0,0.0,0.0,0.0,0.0,0.0,0.0,0.0,0.0,0.0
123.0,0.0,4204.615384615386,4159.487179487181,4202.051282051283,4173.846153846155,4186.666666666668,4177.94871794872,4196.923076923078,4174.871794871797,4213.333333333335,4185.128205128207,4445.128205128207,4189.23076923077,4582.564102564104,4106.666666666668,845.0,2047.0,2048.0,0.0,0.0,0.0,0.0,0.0,0.0,0.0,0.0,0.0,0.0,0.0,0.0,0.0,0.0,0.0,0.0,0.0,0.0
124.0,0.0,4211.282051282053,4150.769230769232,4199.487179487181,4170.256410256412,4179.487179487181,4175.897435897437,4191.282051282053,4188.71794871795,4212.8205128205145,4185.128205128207,4441.0256410256425,4197.435897435899,4541.538461538463,4134.871794871797,858.0,2047.0,2048.0,0.0,0.0,0.0,0.0,0.0,0.0,0.0,0.0,0.0,0.0,0.0,0.0,0.0,0.0,0.0,0.0,0.0,0.0
125.0,0.0,4215.384615384617,4153.333333333335,4205.641025641027,4173.846153846155,4181.538461538463,4173.846153846155,4200.512820512822,4206.153846153848,4216.410256410258,4185.128205128207,4441.538461538463,4210.769230769232,4462.564102564104,4194.871794871797,88.0,2047.0,2048.0,0.0,0.0,0.0,0.0,0.0,0.0,0.0,0.0,0.0,0.0,0.0,0.0,0.0,0.0,0.0,0.0,0.0,0.0
126.0,0.0,4210.256410256412,4153.846153846155,4207.179487179489,4175.897435897437,4188.71794871795,4177.94871794872,4207.692307692309,4204.615384615386,4216.410256410258,4185.128205128207,4457.435897435899,4207.692307692309,4508.20512820513,4176.923076923078,881.0,2047.0,2048.0,0.0,0.0,0.0,0.0,0.0,0.0,0.0,0.0,0.0,0.0,0.0,0.0,0.0,0.0,0.0,0.0,0.0,0.0
127.0,0.0,4209.743589743592,4149.743589743592,4203.589743589745,4170.256410256412,4187.179487179489,4176.923076923078,4203.589743589745,4211.282051282053,4215.897435897437,4185.128205128207,4375.384615384617,4210.256410256412,4488.20512820513,4184.615384615386,845.0,2047.0,2048.0,0.0,0.0,0.0,0.0,0.0,0.0,0.0,0.0,0.0,0.0,0.0,0.0,0.0,0.0,0.0,0.0,0.0,0.0
128.0,0.0,4215.384615384617,4154.871794871797,4206.666666666668,4172.8205128205145,4186.153846153848,4177.94871794872,4200.000000000002,4211.282051282053,4217.94871794872,4185.128205128207,4373.846153846155,4215.897435897437,4446.153846153848,4196.410256410258,858.0,2047.0,2048.0,0.0,0.0,0.0,0.0,4.0,0.0,0.0,0.0,0.0,0.0,0.0,0.0,0.0,0.0,0.0,0.0,4.0,4.0
0.0,0.0,4218.46153846154,4160.000000000002,4207.692307692309,4181.0256410256425,4184.615384615386,4178.97435897436,4201.538461538463,4203.076923076925,4221.0256410256425,4184.615384615386,4393.333333333335,4213.333333333335,4457.94871794872,4211.282051282053,673.0,2047.0,2048.0,0.0,0.0,0.0,0.0,4.0,0.0,0.0,0.0,0.0,0.0,0.0,0.0,0.0,0.0,0.0,0.0,4.0,4.0
1.0,0.0,4212.307692307694,4154.871794871797,4208.20512820513,4176.923076923078,4186.666666666668,4172.307692307694,4201.538461538463,4202.051282051283,4213.333333333335,4184.615384615386,4361.538461538463,4214.871794871797,4451.794871794873,4231.282051282053,828.0,2047.0,2048.0,0.0,0.0,0.0,0.0,4.0,4.0,0.0,0.0,0.0,0.0,0.0,0.0,0.0,0.0,0.0,0.0,4.0,4.0
2.0,0.0,4206.153846153848,4152.8205128205145,4203.589743589745,4170.769230769232,4187.692307692309,4171.282051282053,4197.94871794872,4189.743589743592,4203.589743589745,4185.128205128207,4432.8205128205145,4205.641025641027,4474.3589743589755,4183.589743589745,796.0,2047.0,2048.0,0.0,0.0,4.0,0.0,4.0,4.0,0.0,0.0,0.0,0.0,0.0,0.0,0.0,0.0,0.0,0.0,4.0,4.0
3.0,0.0,4208.20512820513,4158.46153846154,4197.94871794872,4180.512820512822,4185.128205128207,4180.512820512822,4197.435897435899,4184.102564102565,4210.769230769232,4184.615384615386,4538.97435897436,4194.3589743589755,4540.512820512822,4137.435897435899,777.0,2047.0,2048.0,0.0,0.0,4.0,4.0,4.0,4.0,0.0,0.0,0.0,0.0,0.0,0.0,0.0,0.0,0.0,0.0,4.0,4.0
4.0,0.0,4210.256410256412,4157.94871794872,4206.666666666668,4185.641025641027,4187.179487179489,4180.000000000002,4199.487179487181,4195.897435897437,4216.410256410258,4184.615384615386,4497.435897435899,4208.20512820513,4534.871794871797,4171.794871794873,0.0,2047.0,2048.0,0.0,0.0,4.0,4.0,4.0,4.0,0.0,0.0,0.0,0.0,0.0,0.0,0.0,0.0,0.0,0.0,4.0,4.0
5.0,0.0,4201.538461538463,4151.794871794873,4203.589743589745,4174.3589743589755,4184.615384615386,4170.256410256412,4197.435897435899,4196.923076923078,4210.769230769232,4186.153846153848,4461.0256410256425,4210.769230769232,4490.256410256412,4191.282051282053,734.0,2047.0,2048.0,0.0,0.0,4.0,4.0,4.0,4.0,0.0,4.0,0.0,0.0,0.0,0.0,0.0,0.0,0.0,0.0,4.0,4.0
6.0,0.0,4198.46153846154,4149.743589743592,4198.97435897436,4167.692307692309,4187.692307692309,4171.282051282053,4190.769230769232,4187.692307692309,4209.23076923077,4187.179487179489,4512.8205128205145,4200.000000000002,4497.435897435899,4169.23076923077,789.0,2047.0,2048.0,0.0,0.0,4.0,4.0,4.0,4.0,0.0,4.0,4.0,0.0,0.0,0.0,0.0,0.0,0.0,0.0,4.0,4.0
7.0,0.0,4211.282051282053,4150.256410256412,4206.153846153848,4173.846153846155,4187.179487179489,4172.8205128205145,4187.179487179489,4193.846153846155,4212.8205128205145,4186.153846153848,4492.307692307694,4207.692307692309,4478.97435897436,4193.846153846155,753.0,2047.0,2048.0,0.0,0.0,4.0,4.0,4.0,4.0,0.0,4.0,4.0,4.0,0.0,0.0,0.0,0.0,0.0,0.0,4.0,4.0
8.0,0.0,4214.3589743589755,4151.282051282053,4204.615384615386,4177.94871794872,4177.94871794872,4170.256410256412,4186.153846153848,4199.487179487181,4214.871794871797,4185.641025641027,4467.179487179488,4211.794871794873,4444.615384615386,4213.333333333335,561.0,2047.0,2048.0,0.0,0.0,4.0,4.0,4.0,4.0,0.0,4.0,4.0,4.0,4.0,0.0,0.0,0.0,0.0,0.0,4.0,4.0
9.0,0.0,4205.641025641027,4150.769230769232,4204.615384615386,4173.333333333335,4183.589743589745,4170.769230769232,4184.615384615386,4191.794871794873,4209.743589743592,4186.153846153848,4465.641025641027,4212.307692307694,4439.487179487181,4197.94871794872,0.0,2047.0,2048.0,0.0,0.0,4.0,4.0,4.0,4.0,0.0,4.0,4.0,4.0,4.0,0.0,0.0,0.0,0.0,0.0,4.0,4.0
10.0,0.0,4201.0256410256425,4148.20512820513,4205.128205128207,4167.179487179489,4188.20512820513,4169.743589743592,4187.179487179489,4186.153846153848,4203.076923076925,4186.153846153848,4441.0256410256425,4210.769230769232,4418.97435897436,4200.512820512822,854.0,2047.0,2048.0,0.0,0.0,4.0,4.0,4.0,4.0,0.0,4.0,4.0,4.0,4.0,0.0,0.0,0.0,4.0,0.0,4.0,4.0
11.0,0.0,4204.102564102565,4149.743589743592,4206.153846153848,4169.743589743592,4186.153846153848,4172.307692307694,4199.487179487181,4191.282051282053,4208.20512820513,4185.641025641027,4434.871794871797,4211.282051282053,4393.333333333335,4210.256410256412,841.0,2047.0,2048.0,0.0,0.0,4.0,4.0,4.0,4.0,0.0,4.0,4.0,4.0,4.0,0.0,0.0,0.0,4.0,4.0,4.0,4.0
12.0,0.0,4209.743589743592,4154.3589743589755,4209.23076923077,4176.410256410258,4182.564102564104,4174.871794871797,4201.538461538463,4201.0256410256425,4212.8205128205145,4186.153846153848,4424.615384615386,4215.897435897437,4372.307692307694,4213.333333333335,848.0,2047.0,2048.0,0.0,0.0,4.0,4.0,4.0,4.0,0.0,4.0,4.0,4.0,4.0,0.0,4.0,0.0,4.0,4.0,4.0,4.0
13.0,0.0,4209.743589743592,4152.8205128205145,4201.538461538463,4174.3589743589755,4181.538461538463,4169.743589743592,4187.179487179489,4202.564102564104,4207.179487179489,4186.153846153848,4394.871794871797,4209.23076923077,4328.20512820513,4209.23076923077,87.0,2047.0,2048.0,0.0,0.0,4.0,4.0,4.0,4.0,0.0,4.0,4.0,4.0,4.0,0.0,4.0,1.0,4.0,4.0,4.0,4.0
14.0,0.0,4206.666666666668,4151.282051282053,4202.051282051283,4170.256410256412,4187.692307692309,4171.794871794873,4188.71794871795,4202.564102564104,4210.256410256412,4186.153846153848,4373.846153846155,4210.256410256412,4221.538461538463,4208.20512820513,854.0,2047.0,2048.0,0.0,0.0,4.0,4.0,4.0,4.0,0.0,4.0,4.0,4.0,4.0,0.0,4.0,1.0,4.0,4.0,4.0,4.0
15.0,0.0,4208.71794871795,4153.846153846155,4206.666666666668,4175.897435897437,4183.076923076925,4183.589743589745,4202.564102564104,4208.20512820513,4218.97435897436,4186.153846153848,4365.128205128207,4214.871794871797,4108.20512820513,4218.97435897436,841.0,2047.0,2048.0,0.0,0.0,4.0,4.0,4.0,4.0,0.0,4.0,4.0,4.0,4.0,0.0,4.0,1.0,4.0,4.0,4.0,4.0
16.0,0.0,4217.435897435899,4161.0256410256425,4209.743589743592,4184.615384615386,4181.538461538463,4188.20512820513,4203.076923076925,4208.71794871795,4213.333333333335,4186.153846153848,4349.23076923077,4213.846153846155,4080.0000000000014,4229.743589743592,0.0,2047.0,2048.0,0.0,0.0,4.0,4.0,4.0,4.0,0.0,4.0,4.0,4.0,4.0,0.0,4.0,1.0,4.0,4.0,4.0,4.0
17.0,0.0,4220.000000000002,4168.20512820513,4215.897435897437,4186.153846153848,4186.666666666668,4185.128205128207,4198.97435897436,4210.256410256412,4212.307692307694,4186.153846153848,4322.051282051283,4215.897435897437,4095.384615384617,4233.333333333335,0.0,2047.0,2048.0,0.0,0.0,4.0,4.0,4.0,4.0,0.0,4.0,4.0,4.0,4.0,0.0,4.0,1.0,4.0,4.0,4.0,4.0
18.0,0.0,4214.3589743589755,4169.743589743592,4213.846153846155,4183.589743589745,4183.589743589745,4184.102564102565,4203.076923076925,4213.333333333335,4220.000000000002,4186.153846153848,4294.871794871797,4214.3589743589755,4095.8974358974374,4232.8205128205145,0.0,2047.0,2048.0,0.0,0.0,4.0,4.0,4.0,4.0,0.0,4.0,4.0,4.0,4.0,0.0,4.0,1.0,4.0,4.0,4.0,4.0
19.0,0.0,4217.94871794872,4168.20512820513,4212.8205128205145,4185.641025641027,4185.128205128207,4185.641025641027,4201.538461538463,4208.71794871795,4213.846153846155,4186.153846153848,4258.97435897436,4216.410256410258,4092.8205128205145,4229.743589743592,0.0,2047.0,2048.0,0.0,0.0,4.0,4.0,4.0,4.0,0.0,4.0,4.0,4.0,4.0,0.0,4.0,1.0,4.0,4.0,4.0,4.0
20.0,0.0,4224.102564102565,4168.71794871795,4215.897435897437,4187.179487179489,4185.128205128207,4184.615384615386,4197.435897435899,4207.692307692309,4209.743589743592,4186.153846153848,4216.923076923078,4216.923076923078,4094.358974358976,4230.256410256412,0.0,2047.0,2048.0,0.0,0.0,4.0,4.0,4.0,4.0,0.0,4.0,4.0,4.0,4.0,0.0,4.0,1.0,4.0,4.0,4.0,4.0
21.0,0.0,4222.051282051283,4169.743589743592,4223.076923076925,4186.666666666668,4188.20512820513,4185.128205128207,4207.179487179489,4214.871794871797,4216.923076923078,4186.153846153848,4176.923076923078,4218.97435897436,4097.435897435899,4232.8205128205145,0.0,2047.0,2048.0,0.0,0.0,4.0,4.0,4.0,4.0,0.0,4.0,4.0,4.0,4.0,0.0,4.0,1.0,4.0,4.0,4.0,4.0
22.0,0.0,4219.487179487181,4170.256410256412,4225.641025641027,4187.179487179489,4190.256410256412,4189.23076923077,4213.333333333335,4221.0256410256425,4220.512820512822,4186.153846153848,4125.641025641027,4225.641025641027,4101.0256410256425,4230.769230769232,0.0,2047.0,2048.0,0.0,0.0,4.0,4.0,4.0,4.0,0.0,4.0,4.0,4.0,4.0,0.0,4.0,1.0,4.0,4.0,4.0,4.0
23.0,0.0,4216.410256410258,4167.692307692309,4204.102564102565,4185.128205128207,4173.846153846155,4186.153846153848,4196.410256410258,4215.384615384617,4216.923076923078,4185.641025641027,4080.0000000000014,4221.538461538463,4098.46153846154,4223.589743589745,0.0,2047.0,2048.0,0.0,0.0,4.0,4.0,4.0,4.0,0.0,4.0,4.0,4.0,4.0,0.0,4.0,1.0,4.0,4.0,4.0,4.0
24.0,0.0,4205.641025641027,4158.46153846154,4188.20512820513,4182.051282051283,4166.153846153848,4183.076923076925,4181.538461538463,4199.487179487181,4210.769230769232,4186.153846153848,4041.0256410256425,4218.97435897436,4101.538461538463,4212.8205128205145,0.0,2047.0,2048.0,0.0,0.0,4.0,4.0,4.0,4.0,0.0,4.0,4.0,4.0,4.0,0.0,4.0,1.0,4.0,4.0,4.0,4.0
25.0,0.0,4200.512820512822,4151.794871794873,4196.923076923078,4182.564102564104,4178.97435897436,4193.333333333335,4193.333333333335,4197.94871794872,4206.153846153848,4186.153846153848,3978.46153846154,4219.487179487181,4111.794871794873,4207.692307692309,0.0,2047.0,2048.0,0.0,0.0,4.0,4.0,4.0,4.0,0.0,4.0,4.0,4.0,4.0,0.0,4.0,1.0,4.0,4.0,4.0,4.0
26.0,0.0,4209.23076923077,4154.871794871797,4214.871794871797,4186.153846153848,4197.435897435899,4201.0256410256425,4211.794871794873,4208.20512820513,4201.538461538463,4185.128205128207,3892.3076923076937,4220.000000000002,4123.076923076925,4211.794871794873,0.0,2047.0,2048.0,0.0,0.0,4.0,4.0,4.0,4.0,0.0,4.0,4.0,4.0,4.0,0.0,4.0,1.0,4.0,4.0,4.0,4.0
27.0,0.0,4209.743589743592,4156.923076923078,4216.410256410258,4182.564102564104,4200.512820512822,4190.769230769232,4206.153846153848,4205.128205128207,4197.435897435899,4184.615384615386,3769.230769230771,4224.615384615386,4134.3589743589755,4209.743589743592,0.0,2047.0,2048.0,0.0,0.0,4.0,4.0,4.0,4.0,0.0,4.0,4.0,4.0,4.0,0.0,4.0,1.0,4.0,4.0,4.0,4.0
28.0,0.0,4198.97435897436,4150.769230769232,4195.384615384617,4171.282051282053,4182.564102564104,4180.512820512822,4188.20512820513,4200.000000000002,4195.384615384617,4185.641025641027,3634.8717948717963,4222.051282051283,4138.97435897436,4203.076923076925,0.0,2047.0,2048.0,0.0,0.0,4.0,4.0,4.0,4.0,0.0,4.0,4.0,4.0,4.0,0.0,4.0,1.0,4.0,4.0,4.0,4.0
29.0,0.0,4198.97435897436,4152.307692307694,4190.769230769232,4169.743589743592,4175.384615384617,4184.102564102565,4186.666666666668,4204.615384615386,4195.384615384617,4185.641025641027,3591.7948717948734,4219.487179487181,4156.923076923078,4203.589743589745,0.0,2047.0,2048.0,0.0,0.0,4.0,4.0,4.0,4.0,0.0,4.0,4.0,4.0,4.0,0.0,4.0,1.0,4.0,4.0,4.0,4.0
30.0,0.0,4207.179487179489,4161.0256410256425,4200.000000000002,4177.94871794872,4178.46153846154,4188.20512820513,4194.871794871797,4205.641025641027,4200.000000000002,4184.102564102565,3613.846153846155,4220.512820512822,4185.641025641027,4214.3589743589755,0.0,2047.0,2048.0,0.0,0.0,4.0,4.0,4.0,4.0,0.0,4.0,4.0,4.0,4.0,0.0,4.0,1.0,4.0,4.0,4.0,4.0
31.0,0.0,4208.20512820513,4165.641025641027,4202.564102564104,4182.051282051283,4183.589743589745,4183.076923076925,4196.923076923078,4206.666666666668,4203.076923076925,4184.102564102565,3585.128205128207,4225.128205128207,4178.97435897436,4221.0256410256425,0.0,2047.0,2048.0,0.0,0.0,4.0,4.0,4.0,4.0,0.0,4.0,4.0,4.0,4.0,0.0,4.0,1.0,4.0,4.0,4.0,4.0
32.0,0.0,4214.871794871797,4169.743589743592,4214.871794871797,4189.743589743592,4192.8205128205145,4182.051282051283,4206.666666666668,4213.333333333335,4204.615384615386,4184.615384615386,3563.589743589745,4229.743589743592,4178.46153846154,4217.94871794872,0.0,2047.0,2048.0,0.0,0.0,4.0,4.0,4.0,4.0,0.0,4.0,4.0,4.0,4.0,0.0,4.0,1.0,4.0,4.0,4.0,4.0
33.0,0.0,4225.128205128207,4175.897435897437,4220.000000000002,4200.000000000002,4188.20512820513,4188.71794871795,4215.897435897437,4216.410256410258,4209.23076923077,4184.102564102565,3604.615384615386,4223.589743589745,4212.8205128205145,4217.435897435899,0.0,2047.0,2048.0,0.0,0.0,4.0,4.0,4.0,4.0,0.0,4.0,4.0,4.0,4.0,0.0,4.0,1.0,4.0,4.0,4.0,4.0
34.0,0.0,4225.128205128207,4178.97435897436,4214.871794871797,4201.538461538463,4180.512820512822,4191.794871794873,4208.20512820513,4221.0256410256425,4213.846153846155,4184.102564102565,3612.3076923076937,4225.128205128207,4205.641025641027,4226.153846153848,0.0,2047.0,2048.0,0.0,0.0,4.0,4.0,4.0,4.0,0.0,4.0,4.0,4.0,4.0,0.0,4.0,1.0,4.0,4.0,4.0,4.0
35.0,0.0,4225.128205128207,4176.410256410258,4215.897435897437,4201.0256410256425,4181.538461538463,4190.256410256412,4208.71794871795,4229.23076923077,4215.384615384617,4184.615384615386,3594.8717948717963,4230.256410256412,4186.666666666668,4235.897435897437,0.0,2047.0,2048.0,0.0,0.0,4.0,4.0,4.0,4.0,0.0,4.0,4.0,4.0,4.0,0.0,4.0,1.0,4.0,4.0,4.0,4.0
36.0,0.0,4224.615384615386,4173.846153846155,4215.897435897437,4195.897435897437,4188.20512820513,4188.20512820513,4218.97435897436,4223.076923076925,4215.897435897437,4185.128205128207,3613.333333333335,4221.0256410256425,4209.743589743592,4231.794871794873,0.0,2047.0,2048.0,0.0,0.0,4.0,4.0,4.0,4.0,0.0,4.0,4.0,4.0,4.0,0.0,4.0,1.0,4.0,4.0,4.0,4.0
37.0,0.0,4221.538461538463,4170.769230769232,4215.897435897437,4187.179487179489,4191.794871794873,4185.128205128207,4210.256410256412,4214.871794871797,4213.846153846155,4185.641025641027,3612.8205128205145,4223.076923076925,4213.846153846155,4235.384615384617,0.0,2047.0,2048.0,0.0,0.0,4.0,4.0,4.0,4.0,0.0,4.0,4.0,4.0,4.0,0.0,4.0,1.0,4.0,4.0,4.0,4.0
38.0,0.0,4226.153846153848,4167.179487179489,4218.46153846154,4188.71794871795,4181.538461538463,4187.692307692309,4203.589743589745,4227.692307692309,4212.8205128205145,4186.666666666668,3568.2051282051298,4235.384615384617,4188.71794871795,4256.410256410258,0.0,2047.0,2048.0,0.0,0.0,4.0,4.0,4.0,4.0,0.0,4.0,4.0,4.0,4.0,0.0,4.0,1.0,4.0,4.0,4.0,4.0
39.0,0.0,4233.333333333335,4170.769230769232,4224.615384615386,4193.846153846155,4180.000000000002,4196.923076923078,4213.846153846155,4230.769230769232,4213.846153846155,4185.641025641027,3568.2051282051298,4235.384615384617,4190.256410256412,4254.3589743589755,0.0,2047.0,2048.0,0.0,0.0,4.0,4.0,4.0,4.0,0.0,4.0,4.0,4.0,4.0,0.0,4.0,1.0,4.0,4.0,4.0,4.0
40.0,0.0,4224.615384615386,4173.846153846155,4222.564102564104,4188.71794871795,4186.153846153848,4203.589743589745,4218.97435897436,4214.871794871797,4212.307692307694,4183.589743589745,3616.9230769230785,4221.0256410256425,4204.615384615386,4221.0256410256425,0.0,2047.0,2048.0,0.0,0.0,4.0,4.0,4.0,4.0,0.0,4.0,4.0,4.0,4.0,0.0,4.0,1.0,4.0,4.0,4.0,4.0
41.0,0.0,4212.307692307694,4160.512820512822,4211.282051282053,4184.615384615386,4186.153846153848,4198.97435897436,4218.97435897436,4213.333333333335,4209.743589743592,4183.589743589745,3608.2051282051298,4215.897435897437,4179.487179487181,4215.897435897437,0.0,2047.0,2048.0,0.0,0.0,4.0,4.0,4.0,4.0,0.0,4.0,4.0,4.0,4.0,0.0,4.0,1.0,4.0,4.0,4.0,4.0
42.0,0.0,4215.384615384617,4146.153846153848,4211.282051282053,4181.538461538463,4187.692307692309,4191.794871794873,4214.871794871797,4221.538461538463,4207.179487179489,4185.641025641027,3573.333333333335,4228.20512820513,4155.384615384617,4231.794871794873,0.0,2047.0,2048.0,0.0,0.0,4.0,4.0,4.0,4.0,0.0,4.0,4.0,4.0,4.0,0.0,4.0,1.0,4.0,4.0,4.0,4.0
43.0,0.0,4214.871794871797,4153.846153846155,4205.641025641027,4173.333333333335,4183.076923076925,4190.769230769232,4201.538461538463,4216.410256410258,4209.23076923077,4185.641025641027,3608.71794871795,4223.076923076925,4192.8205128205145,4216.410256410258,0.0,2047.0,2048.0,0.0,0.0,4.0,4.0,4.0,4.0,0.0,4.0,4.0,4.0,4.0,0.0,4.0,1.0,4.0,4.0,4.0,4.0
44.0,0.0,4214.871794871797,4171.282051282053,4205.641025641027,4176.923076923078,4181.538461538463,4196.923076923078,4202.564102564104,4215.384615384617,4221.0256410256425,4184.102564102565,3680.0000000000014,4217.435897435899,4225.641025641027,4212.8205128205145,0.0,2047.0,2048.0,0.0,0.0,4.0,4.0,4.0,4.0,0.0,4.0,4.0,4.0,4.0,0.0,4.0,1.0,4.0,4.0,4.0,4.0
45.0,0.0,4222.564102564104,4173.333333333335,4217.94871794872,4188.71794871795,4187.692307692309,4198.97435897436,4213.846153846155,4221.538461538463,4223.589743589745,4184.102564102565,3743.0769230769247,4224.615384615386,4192.307692307694,4232.8205128205145,0.0,2047.0,2048.0,0.0,0.0,4.0,4.0,4.0,4.0,0.0,4.0,4.0,4.0,4.0,0.0,4.0,1.0,4.0,4.0,4.0,4.0
46.0,0.0,4223.076923076925,4171.282051282053,4216.410256410258,4189.23076923077,4188.20512820513,4198.97435897436,4213.333333333335,4212.8205128205145,4215.897435897437,4184.615384615386,3814.8717948717963,4217.435897435899,4175.897435897437,4222.564102564104,0.0,2047.0,2048.0,0.0,0.0,4.0,4.0,4.0,4.0,0.0,4.0,4.0,4.0,4.0,0.0,4.0,1.0,4.0,4.0,4.0,4.0
47.0,0.0,4225.128205128207,4176.410256410258,4219.487179487181,4185.641025641027,4185.128205128207,4200.512820512822,4209.743589743592,4210.769230769232,4220.000000000002,4184.102564102565,3811.7948717948734,4220.000000000002,4186.666666666668,4221.538461538463,0.0,2047.0,2048.0,0.0,0.0,4.0,4.0,4.0,4.0,0.0,4.0,4.0,4.0,4.0,0.0,4.0,1.0,4.0,4.0,4.0,4.0
48.0,0.0,4227.179487179489,4174.3589743589755,4221.0256410256425,4186.666666666668,4175.897435897437,4189.23076923077,4205.641025641027,4225.128205128207,4228.20512820513,4184.102564102565,3766.1538461538476,4234.871794871797,4143.076923076925,4272.307692307694,0.0,2047.0,2048.0,0.0,0.0,4.0,4.0,4.0,4.0,0.0,4.0,4.0,4.0,4.0,0.0,4.0,1.0,4.0,4.0,4.0,4.0
49.0,0.0,4221.0256410256425,4166.153846153848,4212.8205128205145,4184.102564102565,4175.897435897437,4178.46153846154,4197.435897435899,4229.23076923077,4220.000000000002,4184.102564102565,3787.1794871794887,4237.94871794872,4088.2051282051298,4296.410256410258,0.0,2047.0,2048.0,0.0,0.0,4.0,4.0,4.0,4.0,0.0,4.0,4.0,4.0,4.0,0.0,4.0,1.0,4.0,4.0,4.0,4.0
50.0,0.0,4213.846153846155,4166.666666666668,4213.333333333335,4174.871794871797,4188.20512820513,4191.794871794873,4197.94871794872,4215.384615384617,4212.8205128205145,4184.102564102565,3819.487179487181,4223.589743589745,4105.128205128207,4232.307692307694,0.0,2047.0,2048.0,0.0,0.0,4.0,4.0,4.0,4.0,0.0,4.0,4.0,4.0,4.0,0.0,4.0,1.0,4.0,4.0,4.0,4.0
51.0,0.0,4215.384615384617,4168.71794871795,4218.97435897436,4172.307692307694,4195.897435897437,4209.743589743592,4207.692307692309,4205.128205128207,4215.384615384617,4184.102564102565,3888.71794871795,4211.282051282053,4114.3589743589755,4196.923076923078,0.0,2047.0,2048.0,0.0,0.0,4.0,4.0,4.0,4.0,0.0,4.0,4.0,4.0,4.0,0.0,4.0,1.0,4.0,4.0,4.0,4.0
52.0,0.0,4220.512820512822,4157.435897435899,4222.564102564104,4175.384615384617,4193.333333333335,4201.538461538463,4197.94871794872,4203.589743589745,4200.512820512822,4184.102564102565,3953.846153846155,4231.794871794873,4018.46153846154,4270.256410256412,0.0,2047.0,2048.0,0.0,0.0,4.0,4.0,4.0,4.0,0.0,4.0,4.0,4.0,4.0,0.0,4.0,1.0,4.0,4.0,4.0,4.0
53.0,0.0,4213.846153846155,4148.71794871795,4204.615384615386,4172.8205128205145,4175.897435897437,4182.051282051283,4172.307692307694,4195.384615384617,4188.71794871795,4184.102564102565,4000.0000000000014,4233.846153846155,3978.9743589743607,4283.589743589745,0.0,2047.0,2048.0,0.0,0.0,4.0,4.0,4.0,4.0,0.0,4.0,4.0,4.0,4.0,0.0,4.0,1.0,4.0,4.0,4.0,4.0
54.0,0.0,4203.589743589745,4161.0256410256425,4193.333333333335,4170.256410256412,4170.769230769232,4189.23076923077,4172.8205128205145,4194.3589743589755,4205.641025641027,4184.102564102565,4094.358974358976,4206.666666666668,4073.846153846155,4193.333333333335,0.0,2047.0,2048.0,0.0,0.0,4.0,4.0,4.0,4.0,0.0,4.0,4.0,4.0,4.0,0.0,4.0,1.0,4.0,4.0,4.0,4.0
55.0,0.0,4205.128205128207,4171.282051282053,4208.20512820513,4175.897435897437,4186.666666666668,4203.589743589745,4196.410256410258,4204.615384615386,4224.102564102565,4184.102564102565,4113.846153846155,4213.846153846155,4131.794871794873,4181.0256410256425,0.0,2047.0,2048.0,0.0,0.0,4.0,4.0,4.0,4.0,0.0,4.0,4.0,4.0,4.0,0.0,4.0,1.0,4.0,4.0,4.0,4.0
56.0,0.0,4216.923076923078,4165.641025641027,4216.410256410258,4182.051282051283,4192.307692307694,4192.8205128205145,4202.051282051283,4208.20512820513,4215.897435897437,4184.102564102565,3988.2051282051298,4237.435897435899,4145.128205128207,4266.153846153848,0.0,2047.0,2048.0,0.0,0.0,4.0,4.0,4.0,4.0,0.0,4.0,4.0,4.0,4.0,0.0,4.0,1.0,4.0,4.0,4.0,4.0
57.0,0.0,4219.487179487181,4167.179487179489,4215.384615384617,4185.128205128207,4189.743589743592,4186.153846153848,4194.3589743589755,4201.0256410256425,4208.20512820513,4184.102564102565,4034.8717948717963,4228.71794871795,4262.051282051283,4258.97435897436,0.0,2047.0,2048.0,0.0,0.0,4.0,4.0,4.0,4.0,0.0,4.0,4.0,4.0,4.0,0.0,4.0,1.0,4.0,4.0,4.0,4.0
58.0,0.0,4210.256410256412,4175.384615384617,4204.615384615386,4183.076923076925,4180.512820512822,4201.538461538463,4196.410256410258,4196.410256410258,4217.94871794872,4184.102564102565,4289.23076923077,4196.923076923078,4464.615384615386,4148.71794871795,0.0,2047.0,2048.0,0.0,0.0,4.0,4.0,4.0,4.0,0.0,4.0,4.0,4.0,4.0,0.0,4.0,1.0,4.0,4.0,4.0,4.0
59.0,0.0,4200.000000000002,4166.153846153848,4195.384615384617,4173.333333333335,4176.923076923078,4204.102564102565,4196.923076923078,4201.538461538463,4218.46153846154,4184.102564102565,4249.743589743592,4200.512820512822,4507.692307692309,4123.589743589745,0.0,2047.0,2048.0,0.0,0.0,4.0,4.0,4.0,4.0,0.0,4.0,4.0,4.0,4.0,0.0,4.0,1.0,4.0,4.0,4.0,4.0
60.0,0.0,4192.8205128205145,4156.923076923078,4196.923076923078,4165.641025641027,4187.179487179489,4197.435897435899,4192.307692307694,4204.615384615386,4214.3589743589755,4184.102564102565,4145.641025641027,4214.3589743589755,4468.20512820513,4153.333333333335,0.0,2047.0,2048.0,0.0,0.0,4.0,4.0,4.0,4.0,0.0,4.0,4.0,4.0,4.0,0.0,4.0,1.0,4.0,4.0,4.0,4.0
61.0,0.0,4193.846153846155,4161.538461538463,4195.384615384617,4165.641025641027,4186.666666666668,4197.435897435899,4189.743589743592,4197.435897435899,4217.435897435899,4184.102564102565,4381.0256410256425,4195.897435897437,4518.97435897436,4137.435897435899,0.0,2047.0,2048.0,0.0,0.0,4.0,4.0,4.0,4.0,0.0,4.0,4.0,4.0,4.0,0.0,4.0,1.0,4.0,4.0,4.0,4.0
62.0,0.0,4197.94871794872,4161.0256410256425,4195.897435897437,4167.179487179489,4183.076923076925,4191.282051282053,4186.153846153848,4180.000000000002,4215.897435897437,4185.128205128207,4550.256410256412,4188.20512820513,4568.71794871795,4115.384615384617,0.0,2047.0,2048.0,0.0,0.0,4.0,4.0,4.0,4.0,0.0,4.0,4.0,4.0,4.0,0.0,4.0,1.0,4.0,4.0,4.0,4.0
63.0,0.0,4201.538461538463,4162.051282051283,4202.564102564104,4170.769230769232,4181.538461538463,4188.20512820513,4187.692307692309,4183.589743589745,4211.794871794873,4186.153846153848,4390.256410256412,4206.666666666668,4559.487179487181,4153.846153846155,0.0,2047.0,2048.0,0.0,0.0,4.0,4.0,4.0,4.0,0.0,4.0,4.0,4.0,4.0,0.0,4.0,1.0,4.0,4.0,4.0,4.0
64.0,0.0,4199.487179487181,4165.641025641027,4202.051282051283,4172.8205128205145,4182.051282051283,4196.410256410258,4193.333333333335,4201.0256410256425,4215.384615384617,4186.153846153848,4311.282051282053,4211.282051282053,4569.23076923077,4171.794871794873,671.0,2047.0,2048.0,0.0,0.0,4.0,4.0,4.0,4.0,0.0,4.0,4.0,4.0,4.0,0.0,4.0,1.0,4.0,4.0,4.0,4.0
65.0,0.0,4193.846153846155,4158.46153846154,4196.923076923078,4167.692307692309,4187.179487179489,4193.846153846155,4186.666666666668,4191.794871794873,4214.871794871797,4185.641025641027,4389.23076923077,4206.153846153848,4576.410256410258,4159.487179487181,828.0,2047.0,2048.0,0.0,0.0,4.0,4.0,4.0,4.0,0.0,4.0,4.0,4.0,4.0,0.0,4.0,1.0,4.0,4.0,4.0,4.0
66.0,0.0,4191.794871794873,4150.769230769232,4193.846153846155,4164.615384615386,4184.615384615386,4183.589743589745,4182.564102564104,4181.538461538463,4201.538461538463,4186.153846153848,4317.435897435899,4215.897435897437,4484.102564102565,4197.94871794872,796.0,2047.0,2048.0,0.0,0.0,4.0,4.0,4.0,4.0,0.0,4.0,4.0,4.0,4.0,0.0,4.0,1.0,4.0,4.0,4.0,4.0
67.0,0.0,4189.23076923077,4153.333333333335,4197.435897435899,4168.20512820513,4182.564102564104,4189.23076923077,4190.256410256412,4190.769230769232,4196.923076923078,4186.153846153848,4321.538461538463,4216.410256410258,4466.153846153848,4189.743589743592,777.0,2047.0,2048.0,0.0,0.0,4.0,4.0,4.0,4.0,0.0,4.0,4.0,4.0,4.0,0.0,4.0,1.0,4.0,4.0,4.0,4.0
68.0,0.0,4189.23076923077,4158.46153846154,4198.97435897436,4169.23076923077,4182.564102564104,4198.46153846154,4188.71794871795,4191.282051282053,4206.666666666668,4186.153846153848,4491.794871794873,4197.94871794872,4563.589743589745,4135.384615384617,0.0,2047.0,2048.0,0.0,0.0,4.0,4.0,4.0,4.0,0.0,4.0,4.0,4.0,4.0,0.0,4.0,1.0,4.0,4.0,4.0,4.0
69.0,0.0,4192.8205128205145,4164.102564102565,4198.46153846154,4169.23076923077,4185.128205128207,4198.97435897436,4188.20512820513,4191.282051282053,4216.410256410258,4185.641025641027,4495.384615384617,4197.94871794872,4590.769230769232,4138.97435897436,734.0,2047.0,2048.0,0.0,0.0,4.0,4.0,4.0,4.0,0.0,4.0,4.0,4.0,4.0,0.0,4.0,1.0,4.0,4.0,4.0,4.0
70.0,0.0,4198.97435897436,4169.23076923077,4207.179487179489,4173.333333333335,4188.71794871795,4200.512820512822,4200.512820512822,4205.641025641027,4218.97435897436,4185.641025641027,4388.20512820513,4218.97435897436,4553.333333333335,4170.256410256412,789.0,2047.0,2048.0,0.0,0.0,4.0,4.0,4.0,4.0,0.0,4.0,4.0,4.0,4.0,0.0,4.0,1.0,4.0,4.0,4.0,4.0
71.0,0.0,4196.410256410258,4165.128205128207,4204.102564102565,4174.871794871797,4182.564102564104,4197.435897435899,4200.000000000002,4202.051282051283,4215.384615384617,4186.153846153848,4439.487179487181,4210.256410256412,4535.384615384617,4166.153846153848,778.0,2047.0,2048.0,0.0,0.0,4.0,4.0,4.0,4.0,0.0,4.0,4.0,4.0,4.0,0.0,4.0,1.0,4.0,4.0,4.0,4.0
72.0,0.0,4193.846153846155,4164.102564102565,4200.000000000002,4172.307692307694,4183.076923076925,4191.794871794873,4192.307692307694,4189.23076923077,4215.384615384617,4186.153846153848,4512.307692307694,4200.512820512822,4530.769230769232,4157.94871794872,561.0,2047.0,2048.0,0.0,0.0,4.0,4.0,4.0,4.0,0.0,4.0,4.0,4.0,4.0,0.0,4.0,1.0,4.0,4.0,4.0,4.0
73.0,0.0,4207.692307692309,4169.743589743592,4212.8205128205145,4176.410256410258,4186.153846153848,4193.846153846155,4197.435897435899,4204.102564102565,4218.46153846154,4186.153846153848,4418.46153846154,4219.487179487181,4479.487179487181,4197.94871794872,0.0,2047.0,2048.0,0.0,0.0,4.0,4.0,4.0,4.0,0.0,4.0,4.0,4.0,4.0,0.0,4.0,1.0,4.0,4.0,4.0,4.0
74.0,0.0,4213.333333333335,4171.282051282053,4215.897435897437,4184.615384615386,4183.589743589745,4201.538461538463,4202.564102564104,4212.307692307694,4220.000000000002,4186.666666666668,4389.743589743592,4220.000000000002,4478.46153846154,4210.256410256412,825.0,2047.0,2048.0,0.0,0.0,4.0,4.0,4.0,4.0,0.0,4.0,4.0,4.0,4.0,0.0,4.0,1.0,4.0,4.0,4.0,4.0
75.0,0.0,4203.076923076925,4170.769230769232,4213.333333333335,4188.20512820513,4185.641025641027,4200.000000000002,4200.000000000002,4200.000000000002,4221.538461538463,4187.179487179489,4470.256410256412,4210.769230769232,4522.564102564104,4185.641025641027,874.0,2047.0,2048.0,0.0,0.0,4.0,4.0,4.0,4.0,0.0,4.0,4.0,4.0,4.0,0.0,4.0,1.0,4.0,4.0,4.0,4.0
76.0,0.0,4206.153846153848,4174.871794871797,4213.333333333335,4188.71794871795,4184.615384615386,4197.435897435899,4202.564102564104,4205.128205128207,4224.615384615386,4187.179487179489,4480.512820512822,4210.256410256412,4515.384615384617,4188.71794871795,937.0,2047.0,2048.0,0.0,0.0,4.0,4.0,4.0,4.0,0.0,4.0,4.0,4.0,4.0,0.0,4.0,1.0,4.0,4.0,4.0,4.0
77.0,0.0,4218.46153846154,4177.435897435899,4220.000000000002,4189.743589743592,4186.153846153848,4202.051282051283,4204.615384615386,4220.512820512822,4226.666666666668,4186.666666666668,4421.0256410256425,4216.923076923078,4469.23076923077,4214.3589743589755,87.0,2047.0,2048.0,0.0,0.0,4.0,4.0,4.0,4.0,0.0,4.0,4.0,4.0,4.0,0.0,4.0,1.0,4.0,4.0,4.0,4.0
78.0,0.0,4209.23076923077,4169.23076923077,4215.897435897437,4187.179487179489,4188.20512820513,4202.051282051283,4201.538461538463,4214.871794871797,4223.589743589745,4184.615384615386,4416.410256410258,4216.923076923078,4427.692307692309,4210.256410256412,825.0,2047.0,2048.0,0.0,0.0,4.0,4.0,4.0,4.0,0.0,4.0,4.0,4.0,4.0,0.0,4.0,1.0,4.0,4.0,4.0,4.0
79.0,0.0,4196.410256410258,4166.153846153848,4203.076923076925,4183.589743589745,4186.666666666668,4197.94871794872,4201.538461538463,4204.615384615386,4218.97435897436,4184.102564102565,4430.256410256412,4207.692307692309,4386.666666666668,4201.0256410256425,874.0,2047.0,2048.0,0.0,0.0,4.0,4.0,4.0,4.0,0.0,4.0,4.0,4.0,4.0,0.0,4.0,1.0,4.0,4.0,4.0,4.0
80.0,0.0,4203.076923076925,4172.307692307694,4208.71794871795,4186.666666666668,4187.692307692309,4199.487179487181,4201.538461538463,4206.666666666668,4217.94871794872,4184.102564102565,4403.589743589745,4213.333333333335,4348.71794871795,4215.384615384617,937.0,2047.0,2048.0,0.0,0.0,4.0,4.0,4.0,4.0,0.0,4.0,4.0,4.0,4.0,0.0,4.0,1.0,4.0,4.0,4.0,4.0
81.0,0.0,4205.128205128207,4170.769230769232,4210.769230769232,4186.666666666668,4183.076923076925,4200.512820512822,4200.000000000002,4209.743589743592,4220.512820512822,4184.615384615386,4385.128205128207,4218.46153846154,4323.076923076925,4220.000000000002,87.0,2047.0,2048.0,0.0,0.0,4.0,4.0,4.0,4.0,0.0,4.0,4.0,4.0,4.0,0.0,4.0,1.0,4.0,4.0,4.0,4.0
82.0,0.0,4195.384615384617,4165.128205128207,4202.564102564104,4181.538461538463,4184.615384615386,4194.871794871797,4201.0256410256425,4209.23076923077,4217.94871794872,4184.102564102565,4373.846153846155,4216.410256410258,4263.076923076925,4212.8205128205145,825.0,2047.0,2048.0,0.0,0.0,4.0,4.0,4.0,4.0,0.0,4.0,4.0,4.0,4.0,0.0,4.0,1.0,4.0,4.0,4.0,4.0
83.0,0.0,4193.333333333335,4166.153846153848,4201.538461538463,4181.0256410256425,4189.743589743592,4191.794871794873,4201.538461538463,4207.692307692309,4213.846153846155,4183.589743589745,4348.71794871795,4217.94871794872,4211.794871794873,4212.307692307694,874.0,2047.0,2048.0,0.0,0.0,4.0,4.0,4.0,4.0,0.0,4.0,4.0,4.0,4.0,0.0,4.0,1.0,4.0,4.0,4.0,4.0
84.0,0.0,4195.897435897437,4165.641025641027,4202.564102564104,4183.076923076925,4182.051282051283,4190.769230769232,4197.435897435899,4204.615384615386,4217.435897435899,4185.641025641027,4324.615384615386,4215.384615384617,4212.8205128205145,4213.333333333335,937.0,2047.0,2048.0,0.0,0.0,4.0,4.0,4.0,4.0,0.0,4.0,4.0,4.0,4.0,0.0,4.0,1.0,4.0,4.0,4.0,4.0
85.0,0.0,4194.871794871797,4161.538461538463,4204.615384615386,4180.000000000002,4181.0256410256425,4186.153846153848,4194.871794871797,4200.512820512822,4213.333333333335,4187.179487179489,4297.94871794872,4215.384615384617,4175.897435897437,4210.769230769232,87.0,2047.0,2048.0,0.0,0.0,4.0,4.0,4.0,4.0,0.0,4.0,4.0,4.0,4.0,0.0,4.0,1.0,4.0,4.0,4.0,4.0
86.0,0.0,4196.410256410258,4162.564102564104,4202.564102564104,4180.512820512822,4184.615384615386,4188.71794871795,4197.435897435899,4207.179487179489,4210.256410256412,4186.153846153848,4271.282051282053,4213.846153846155,4094.8717948717963,4212.8205128205145,825.0,2047.0,2048.0,0.0,0.0,4.0,4.0,4.0,4.0,0.0,4.0,4.0,4.0,4.0,0.0,4.0,1.0,4.0,4.0,4.0,4.0
87.0,0.0,4204.102564102565,4171.282051282053,4206.153846153848,4188.20512820513,4186.666666666668,4195.384615384617,4201.0256410256425,4214.3589743589755,4211.794871794873,4184.102564102565,4247.179487179489,4213.333333333335,4070.256410256412,4219.487179487181,874.0,2047.0,2048.0,0.0,0.0,4.0,4.0,4.0,4.0,0.0,4.0,4.0,4.0,4.0,0.0,4.0,1.0,4.0,4.0,4.0,4.0
88.0,0.0,4205.128205128207,4168.71794871795,4213.333333333335,4185.641025641027,4186.153846153848,4195.897435897437,4200.512820512822,4205.128205128207,4206.153846153848,4185.641025641027,4213.333333333335,4216.410256410258,4090.256410256412,4215.384615384617,937.0,2047.0,2048.0,0.0,0.0,4.0,4.0,4.0,4.0,0.0,4.0,4.0,4.0,4.0,0.0,4.0,1.0,4.0,4.0,4.0,4.0
89.0,0.0,4196.923076923078,4153.333333333335,4202.564102564104,4175.897435897437,4182.051282051283,4187.179487179489,4194.3589743589755,4198.97435897436,4205.128205128207,4186.666666666668,4163.076923076925,4214.871794871797,4084.615384615386,4206.153846153848,87.0,2047.0,2048.0,0.0,0.0,4.0,4.0,4.0,4.0,0.0,4.0,4.0,4.0,4.0,0.0,4.0,1.0,4.0,4.0,4.0,4.0
90.0,0.0,4197.94871794872,4154.3589743589755,4202.564102564104,4180.512820512822,4185.641025641027,4184.615384615386,4190.769230769232,4208.20512820513,4211.794871794873,4185.641025641027,4117.94871794872,4218.97435897436,4084.102564102566,4209.23076923077,825.0,2047.0,2048.0,0.0,0.0,4.0,4.0,4.0,4.0,0.0,4.0,4.0,4.0,4.0,0.0,4.0,1.0,4.0,4.0,4.0,4.0
91.0,0.0,4201.538461538463,4168.20512820513,4214.871794871797,4188.71794871795,4188.71794871795,4192.307692307694,4198.46153846154,4218.46153846154,4211.282051282053,4186.153846153848,4082.564102564104,4220.000000000002,4111.282051282053,4220.512820512822,874.0,2047.0,2048.0,0.0,0.0,4.0,4.0,4.0,4.0,0.0,4.0,4.0,4.0,4.0,0.0,4.0,1.0,4.0,4.0,4.0,4.0
92.0,0.0,4200.000000000002,4169.743589743592,4215.897435897437,4185.641025641027,4190.769230769232,4194.3589743589755,4206.153846153848,4218.46153846154,4208.71794871795,4187.179487179489,4049.230769230771,4218.46153846154,4113.333333333335,4224.615384615386,937.0,2047.0,2048.0,0.0,0.0,4.0,4.0,4.0,4.0,0.0,4.0,4.0,4.0,4.0,0.0,4.0,1.0,4.0,4.0,4.0,4.0
93.0,0.0,4204.102564102565,4164.102564102565,4213.846153846155,4182.051282051283,4185.641025641027,4192.8205128205145,4203.076923076925,4216.923076923078,4213.846153846155,4186.666666666668,4029.230769230771,4222.051282051283,4098.97435897436,4221.0256410256425,87.0,2047.0,2048.0,0.0,0.0,4.0,4.0,4.0,4.0,0.0,4.0,4.0,4.0,4.0,0.0,4.0,1.0,4.0,4.0,4.0,4.0
94.0,0.0,4205.641025641027,4166.666666666668,4206.153846153848,4183.589743589745,4172.307692307694,4195.897435897437,4195.384615384617,4217.94871794872,4216.410256410258,4186.153846153848,4001.5384615384633,4217.94871794872,4107.692307692309,4217.94871794872,825.0,2047.0,2048.0,0.0,0.0,4.0,4.0,4.0,4.0,0.0,4.0,4.0,4.0,4.0,0.0,4.0,1.0,4.0,4.0,4.0,4.0
95.0,0.0,4202.564102564104,4170.769230769232,4207.692307692309,4183.589743589745,4178.97435897436,4203.589743589745,4202.564102564104,4223.589743589745,4213.333333333335,4185.128205128207,3941.0256410256425,4219.487179487181,4127.179487179489,4213.333333333335,874.0,2047.0,2048.0,0.0,0.0,4.0,4.0,4.0,4.0,0.0,4.0,4.0,4.0,4.0,0.0,4.0,1.0,4.0,4.0,4.0,4.0
96.0,0.0,4209.743589743592,4170.256410256412,4217.435897435899,4186.666666666668,4190.256410256412,4208.71794871795,4218.97435897436,4232.8205128205145,4209.23076923077,4184.615384615386,3851.7948717948734,4222.051282051283,4144.102564102565,4211.282051282053,937.0,2047.0,2048.0,0.0,0.0,4.0,4.0,4.0,4.0,0.0,4.0,4.0,4.0,4.0,0.0,4.0,1.0,4.0,4.0,4.0,4.0
97.0,0.0,4213.333333333335,4169.23076923077,4216.923076923078,4189.743589743592,4186.153846153848,4210.769230769232,4216.410256410258,4233.333333333335,4203.589743589745,4185.641025641027,3742.564102564104,4219.487179487181,4157.435897435899,4209.23076923077,87.0,2047.0,2048.0,0.0,0.0,4.0,4.0,4.0,4.0,0.0,4.0,4.0,4.0,4.0,0.0,4.0,1.0,4.0,4.0,4.0,4.0
98.0,0.0,4206.153846153848,4169.743589743592,4212.307692307694,4188.20512820513,4182.564102564104,4209.23076923077,4202.051282051283,4225.641025641027,4201.0256410256425,4185.641025641027,3659.487179487181,4223.076923076925,4162.051282051283,4202.051282051283,825.0,2047.0,2048.0,0.0,0.0,4.0,4.0,4.0,4.0,0.0,4.0,4.0,4.0,4.0,0.0,4.0,1.0,4.0,4.0,4.0,4.0
99.0,0.0,4205.128205128207,4169.743589743592,4208.71794871795,4186.666666666668,4180.000000000002,4204.102564102565,4204.102564102565,4227.692307692309,4203.076923076925,4184.102564102565,3638.9743589743607,4219.487179487181,4166.153846153848,4199.487179487181,874.0,2047.0,2048.0,0.0,0.0,4.0,4.0,4.0,4.0,0.0,4.0,4.0,4.0,4.0,0.0,4.0,1.0,4.0,4.0,4.0,4.0
100.0,0.0,4208.20512820513,4171.794871794873,4214.871794871797,4187.692307692309,4182.564102564104,4202.564102564104,4209.743589743592,4232.307692307694,4202.051282051283,4184.102564102565,3618.9743589743607,4218.97435897436,4171.282051282053,4204.615384615386,937.0,2047.0,2048.0,0.0,0.0,4.0,4.0,4.0,4.0,0.0,4.0,4.0,4.0,4.0,0.0,4.0,1.0,4.0,4.0,4.0,4.0
101.0,0.0,4204.102564102565,4175.384615384617,4215.897435897437,4194.871794871797,4184.615384615386,4200.512820512822,4202.564102564104,4221.538461538463,4201.0256410256425,4184.615384615386,3584.102564102566,4222.564102564104,4177.435897435899,4209.743589743592,87.0,2047.0,2048.0,0.0,0.0,4.0,4.0,4.0,4.0,0.0,4.0,4.0,4.0,4.0,0.0,4.0,1.0,4.0,4.0,4.0,4.0
102.0,0.0,4198.97435897436,4173.333333333335,4209.23076923077,4193.846153846155,4182.051282051283,4194.871794871797,4197.435897435899,4210.769230769232,4206.153846153848,4184.102564102565,3586.6666666666683,4218.46153846154,4186.666666666668,4206.666666666668,825.0,2047.0,2048.0,0.0,0.0,4.0,4.0,4.0,4.0,0.0,4.0,4.0,4.0,4.0,0.0,4.0,1.0,4.0,4.0,4.0,4.0
103.0,0.0,4206.153846153848,4174.3589743589755,4218.46153846154,4187.179487179489,4184.615384615386,4191.282051282053,4204.102564102565,4221.538461538463,4217.94871794872,4184.102564102565,3585.641025641027,4225.128205128207,4191.794871794873,4214.3589743589755,874.0,2047.0,2048.0,0.0,0.0,4.0,4.0,4.0,4.0,0.0,4.0,4.0,4.0,4.0,0.0,4.0,1.0,4.0,4.0,4.0,4.0
104.0,0.0,4210.769230769232,4181.0256410256425,4222.051282051283,4191.282051282053,4185.641025641027,4194.871794871797,4206.666666666668,4228.71794871795,4218.46153846154,4184.102564102565,3561.0256410256425,4226.666666666668,4192.307692307694,4223.076923076925,937.0,2047.0,2048.0,0.0,0.0,4.0,4.0,4.0,4.0,0.0,4.0,4.0,4.0,4.0,0.0,4.0,1.0,4.0,4.0,4.0,4.0
105.0,0.0,4203.076923076925,4175.384615384617,4212.8205128205145,4191.794871794873,4189.23076923077,4199.487179487181,4200.000000000002,4214.871794871797,4206.153846153848,4184.102564102565,3557.435897435899,4220.512820512822,4196.923076923078,4206.666666666668,87.0,2047.0,2048.0,0.0,0.0,4.0,4.0,4.0,4.0,0.0,4.0,4.0,4.0,4.0,0.0,4.0,1.0,4.0,4.0,4.0,4.0
106.0,0.0,4204.102564102565,4167.692307692309,4213.846153846155,4186.666666666668,4189.23076923077,4200.512820512822,4202.564102564104,4218.46153846154,4206.666666666668,4184.102564102565,3558.9743589743607,4224.615384615386,4198.97435897436,4214.3589743589755,825.0,2047.0,2048.0,0.0,0.0,4.0,4.0,4.0,4.0,0.0,4.0,4.0,4.0,4.0,0.0,4.0,1.0,4.0,4.0,4.0,4.0
107.0,0.0,4215.897435897437,4172.8205128205145,4220.512820512822,4193.846153846155,4184.615384615386,4205.128205128207,4212.307692307694,4234.871794871797,4220.000000000002,4184.102564102565,3563.0769230769247,4228.71794871795,4207.179487179489,4235.897435897437,874.0,2047.0,2048.0,0.0,0.0,4.0,4.0,4.0,4.0,0.0,4.0,4.0,4.0,4.0,0.0,4.0,1.0,4.0,4.0,4.0,4.0
108.0,0.0,4211.794871794873,4175.384615384617,4218.97435897436,4198.46153846154,4186.153846153848,4206.666666666668,4208.20512820513,4227.179487179489,4216.923076923078,4184.102564102565,3573.333333333335,4225.128205128207,4224.102564102565,4211.794871794873,937.0,2047.0,2048.0,0.0,0.0,4.0,4.0,4.0,4.0,0.0,4.0,4.0,4.0,4.0,0.0,4.0,1.0,4.0,4.0,4.0,4.0
109.0,0.0,4197.435897435899,4168.71794871795,4204.615384615386,4186.153846153848,4183.076923076925,4200.000000000002,4195.384615384617,4213.333333333335,4202.564102564104,4184.102564102565,3548.71794871795,4221.0256410256425,4198.46153846154,4194.871794871797,87.0,2047.0,2048.0,0.0,0.0,4.0,4.0,4.0,4.0,0.0,4.0,4.0,4.0,4.0,0.0,4.0,1.0,4.0,4.0,4.0,4.0
110.0,0.0,4196.410256410258,4166.153846153848,4200.000000000002,4177.435897435899,4184.102564102565,4199.487179487181,4197.94871794872,4213.846153846155,4203.076923076925,4184.102564102565,3532.3076923076937,4223.076923076925,4168.71794871795,4210.769230769232,825.0,2047.0,2048.0,0.0,0.0,4.0,4.0,4.0,4.0,0.0,4.0,4.0,4.0,4.0,0.0,4.0,1.0,4.0,4.0,4.0,4.0
111.0,0.0,4202.564102564104,4172.307692307694,4209.743589743592,4181.538461538463,4184.615384615386,4202.564102564104,4203.589743589745,4211.794871794873,4211.282051282053,4184.102564102565,3574.358974358976,4219.487179487181,4214.871794871797,4207.179487179489,874.0,2047.0,2048.0,0.0,0.0,4.0,4.0,4.0,4.0,0.0,4.0,4.0,4.0,4.0,0.0,4.0,1.0,4.0,4.0,4.0,4.0
112.0,0.0,4208.71794871795,4185.128205128207,4213.333333333335,4187.179487179489,4181.0256410256425,4201.0256410256425,4196.410256410258,4212.8205128205145,4213.846153846155,4184.102564102565,3584.615384615386,4218.46153846154,4237.435897435899,4207.179487179489,937.0,2047.0,2048.0,0.0,0.0,4.0,4.0,4.0,4.0,0.0,4.0,4.0,4.0,4.0,0.0,4.0,1.0,4.0,4.0,4.0,4.0
113.0,0.0,4209.743589743592,4184.615384615386,4215.897435897437,4187.179487179489,4187.179487179489,4200.000000000002,4191.794871794873,4215.897435897437,4208.71794871795,4184.102564102565,3551.7948717948734,4229.23076923077,4183.589743589745,4226.153846153848,87.0,2047.0,2048.0,0.0,0.0,4.0,4.0,4.0,4.0,0.0,4.0,4.0,4.0,4.0,0.0,4.0,1.0,4.0,4.0,4.0,4.0
114.0,0.0,4199.487179487181,4171.794871794873,4210.256410256412,4182.564102564104,4188.71794871795,4200.512820512822,4196.410256410258,4208.20512820513,4205.641025641027,4184.102564102565,3593.333333333335,4222.051282051283,4174.871794871797,4217.94871794872,825.0,2047.0,2048.0,0.0,0.0,4.0,4.0,4.0,4.0,0.0,4.0,4.0,4.0,4.0,0.0,4.0,1.0,4.0,4.0,4.0,4.0
115.0,0.0,4200.000000000002,4176.410256410258,4208.71794871795,4186.666666666668,4184.615384615386,4202.051282051283,4202.051282051283,4206.666666666668,4207.692307692309,4184.102564102565,3625.641025641027,4217.94871794872,4193.846153846155,4208.71794871795,874.0,2047.0,2048.0,0.0,0.0,4.0,4.0,4.0,4.0,0.0,4.0,4.0,4.0,4.0,0.0,4.0,1.0,4.0,4.0,4.0,4.0
116.0,0.0,4209.23076923077,4190.256410256412,4213.846153846155,4187.692307692309,4183.589743589745,4201.538461538463,4200.000000000002,4213.333333333335,4207.692307692309,4184.102564102565,3553.333333333335,4230.769230769232,4156.923076923078,4223.076923076925,937.0,2047.0,2048.0,0.0,0.0,4.0,4.0,4.0,4.0,0.0,4.0,4.0,4.0,4.0,0.0,4.0,1.0,4.0,4.0,4.0,4.0
117.0,0.0,4197.94871794872,4183.076923076925,4209.743589743592,4171.282051282053,4191.282051282053,4200.512820512822,4193.846153846155,4202.564102564104,4202.051282051283,4184.102564102565,3573.333333333335,4222.051282051283,4155.897435897437,4201.538461538463,87.0,2047.0,2048.0,0.0,0.0,4.0,4.0,4.0,4.0,0.0,4.0,4.0,4.0,4.0,0.0,4.0,1.0,4.0,4.0,4.0,4.0
118.0,0.0,4187.179487179489,4174.3589743589755,4207.692307692309,4165.128205128207,4195.897435897437,4197.94871794872,4185.128205128207,4178.46153846154,4197.94871794872,4184.102564102565,3786.6666666666683,4206.666666666668,4209.743589743592,4162.051282051283,825.0,2047.0,2048.0,0.0,0.0,4.0,4.0,4.0,4.0,0.0,4.0,4.0,4.0,4.0,0.0,4.0,1.0,4.0,4.0,4.0,4.0
119.0,0.0,4199.487179487181,4183.076923076925,4206.153846153848,4175.384615384617,4177.94871794872,4195.897435897437,4179.487179487181,4185.128205128207,4209.743589743592,4184.102564102565,3893.333333333335,4217.435897435899,4176.923076923078,4202.564102564104,874.0,2047.0,2048.0,0.0,0.0,4.0,4.0,4.0,4.0,0.0,4.0,4.0,4.0,4.0,0.0,4.0,1.0,4.0,4.0,4.0,4.0
120.0,0.0,4204.615384615386,4185.641025641027,4204.615384615386,4177.94871794872,4171.282051282053,4196.410256410258,4182.564102564104,4216.410256410258,4219.487179487181,4184.102564102565,3791.7948717948734,4237.94871794872,4074.358974358976,4254.871794871797,937.0,2047.0,2048.0,0.0,0.0,4.0,4.0,4.0,4.0,0.0,4.0,4.0,4.0,4.0,0.0,4.0,1.0,4.0,4.0,4.0,4.0
121.0,0.0,4187.692307692309,4175.384615384617,4200.000000000002,4165.128205128207,4186.153846153848,4196.923076923078,4181.538461538463,4211.794871794873,4203.589743589745,4184.102564102565,3790.256410256412,4231.282051282053,4052.3076923076937,4211.282051282053,87.0,2047.0,2048.0,0.0,0.0,4.0,4.0,4.0,4.0,0.0,4.0,4.0,4.0,4.0,0.0,4.0,1.0,4.0,4.0,4.0,4.0
122.0,0.0,4184.102564102565,4174.3589743589755,4196.923076923078,4162.564102564104,4190.256410256412,4194.3589743589755,4178.97435897436,4185.641025641027,4185.641025641027,4184.102564102565,3976.9230769230785,4210.769230769232,4092.8205128205145,4165.128205128207,825.0,2047.0,2048.0,0.0,0.0,4.0,4.0,4.0,4.0,0.0,4.0,4.0,4.0,4.0,0.0,4.0,1.0,4.0,4.0,4.0,4.0
123.0,0.0,4211.794871794873,4192.307692307694,4220.000000000002,4181.538461538463,4190.769230769232,4204.102564102565,4190.769230769232,4194.3589743589755,4194.871794871797,4184.102564102565,4135.897435897437,4215.384615384617,4089.743589743591,4197.435897435899,874.0,2047.0,2048.0,0.0,0.0,4.0,4.0,4.0,4.0,0.0,4.0,4.0,4.0,4.0,0.0,4.0,1.0,4.0,4.0,4.0,4.0
124.0,0.0,4233.333333333335,4209.23076923077,4231.794871794873,4197.435897435899,4185.128205128207,4221.0256410256425,4202.051282051283,4219.487179487181,4205.641025641027,4184.102564102565,4114.871794871797,4223.589743589745,4036.4102564102577,4235.897435897437,937.0,2047.0,2048.0,0.0,0.0,4.0,4.0,4.0,4.0,0.0,4.0,4.0,4.0,4.0,0.0,4.0,1.0,4.0,4.0,4.0,4.0
125.0,0.0,4233.333333333335,4214.871794871797,4223.076923076925,4200.512820512822,4179.487179487181,4224.615384615386,4202.564102564104,4217.435897435899,4201.0256410256425,4184.102564102565,4088.71794871795,4225.641025641027,4024.102564102566,4247.692307692309,87.0,2047.0,2048.0,0.0,0.0,4.0,4.0,4.0,4.0,0.0,4.0,4.0,4.0,4.0,0.0,4.0,1.0,4.0,4.0,4.0,4.0
126.0,0.0,4235.384615384617,4218.46153846154,4230.256410256412,4204.102564102565,4185.641025641027,4221.0256410256425,4200.512820512822,4205.128205128207,4208.20512820513,4184.102564102565,4197.94871794872,4233.333333333335,4056.4102564102577,4250.256410256412,825.0,2047.0,2048.0,0.0,0.0,4.0,4.0,4.0,4.0,0.0,4.0,4.0,4.0,4.0,0.0,4.0,1.0,4.0,4.0,4.0,4.0
127.0,0.0,4232.307692307694,4221.0256410256425,4228.71794871795,4204.615384615386,4186.666666666668,4219.487179487181,4203.589743589745,4201.538461538463,4218.46153846154,4184.102564102565,4319.487179487181,4218.46153846154,4110.256410256412,4214.871794871797,874.0,2047.0,2048.0,0.0,0.0,4.0,4.0,4.0,4.0,0.0,4.0,4.0,4.0,4.0,0.0,4.0,1.0,4.0,4.0,4.0,4.0
128.0,0.0,4220.000000000002,4221.538461538463,4219.487179487181,4200.000000000002,4186.666666666668,4218.97435897436,4209.23076923077,4207.692307692309,4214.3589743589755,4184.102564102565,4306.666666666668,4207.179487179489,4186.153846153848,4184.102564102565,937.0,2047.0,2048.0,0.0,0.0,4.0,4.0,4.0,4.0,0.0,4.0,4.0,4.0,4.0,0.0,4.0,1.0,4.0,4.0,4.0,4.0
0.0,0.0,4221.0256410256425,4221.538461538463,4224.615384615386,4198.46153846154,4186.153846153848,4220.000000000002,4208.20512820513,4223.076923076925,4212.307692307694,4184.102564102565,4215.384615384617,4222.051282051283,4237.94871794872,4226.153846153848,669.0,2047.0,2048.0,0.0,0.0,4.0,4.0,4.0,4.0,0.0,4.0,4.0,4.0,4.0,0.0,4.0,1.0,4.0,4.0,4.0,4.0
1.0,0.0,4222.051282051283,4217.94871794872,4226.666666666668,4197.435897435899,4187.179487179489,4224.615384615386,4205.128205128207,4222.051282051283,4216.410256410258,4184.102564102565,4254.3589743589755,4221.0256410256425,4269.743589743592,4228.71794871795,828.0,2047.0,2048.0,0.0,0.0,4.0,4.0,4.0,4.0,0.0,4.0,4.0,4.0,4.0,0.0,4.0,1.0,4.0,4.0,4.0,4.0
2.0,0.0,4214.871794871797,4215.384615384617,4222.564102564104,4197.94871794872,4189.743589743592,4232.8205128205145,4213.333333333335,4209.743589743592,4213.333333333335,4184.615384615386,4380.000000000002,4208.20512820513,4372.8205128205145,4163.589743589745,796.0,2047.0,2048.0,0.0,0.0,4.0,4.0,4.0,4.0,0.0,4.0,4.0,4.0,4.0,0.0,4.0,1.0,4.0,4.0,4.0,4.0
3.0,0.0,4221.538461538463,4223.076923076925,4223.589743589745,4205.641025641027,4185.128205128207,4234.871794871797,4214.871794871797,4211.282051282053,4207.179487179489,4185.641025641027,4382.564102564104,4212.307692307694,4493.333333333335,4167.179487179489,777.0,2047.0,2048.0,0.0,0.0,4.0,4.0,4.0,4.0,0.0,4.0,4.0,4.0,4.0,0.0,4.0,1.0,4.0,4.0,4.0,4.0
4.0,0.0,4228.20512820513,4232.8205128205145,4230.769230769232,4207.692307692309,4185.641025641027,4230.769230769232,4198.97435897436,4207.179487179489,4203.589743589745,4186.153846153848,4328.71794871795,4222.564102564104,4488.71794871795,4203.076923076925,0.0,2047.0,2048.0,0.0,0.0,4.0,4.0,4.0,4.0,0.0,4.0,4.0,4.0,4.0,0.0,4.0,1.0,4.0,4.0,4.0,4.0
5.0,0.0,4220.512820512822,4231.282051282053,4229.743589743592,4203.589743589745,4187.179487179489,4235.384615384617,4204.102564102565,4201.0256410256425,4208.20512820513,4186.153846153848,4377.94871794872,4214.3589743589755,4415.897435897437,4197.94871794872,734.0,2047.0,2048.0,0.0,0.0,4.0,4.0,4.0,4.0,0.0,4.0,4.0,4.0,4.0,0.0,4.0,1.0,4.0,4.0,4.0,4.0
6.0,0.0,4209.23076923077,4223.589743589745,4221.0256410256425,4197.94871794872,4183.589743589745,4247.179487179489,4230.256410256412,4215.384615384617,4217.435897435899,4186.153846153848,4416.410256410258,4207.692307692309,4439.487179487181,4182.564102564104,789.0,2047.0,2048.0,0.0,0.0,4.0,4.0,4.0,4.0,0.0,4.0,4.0,4.0,4.0,0.0,4.0,1.0,4.0,4.0,4.0,4.0
7.0,0.0,4205.641025641027,4218.46153846154,4219.487179487181,4188.20512820513,4183.589743589745,4242.564102564104,4230.256410256412,4227.692307692309,4216.923076923078,4186.153846153848,4380.000000000002,4215.384615384617,4477.94871794872,4181.0256410256425,767.0,2047.0,2048.0,0.0,0.0,4.0,4.0,4.0,4.0,0.0,4.0,4.0,4.0,4.0,0.0,4.0,1.0,4.0,4.0,4.0,4.0
8.0,0.0,4209.23076923077,4216.923076923078,4214.3589743589755,4183.589743589745,4183.589743589745,4224.102564102565,4210.256410256412,4214.871794871797,4214.871794871797,4186.153846153848,4413.846153846155,4209.743589743592,4443.076923076925,4188.71794871795,561.0,2047.0,2048.0,0.0,0.0,4.0,4.0,4.0,4.0,0.0,4.0,4.0,4.0,4.0,0.0,4.0,1.0,4.0,4.0,4.0,4.0
9.0,0.0,4211.282051282053,4220.000000000002,4214.3589743589755,4186.666666666668,4190.256410256412,4221.538461538463,4201.0256410256425,4202.051282051283,4212.8205128205145,4186.153846153848,4475.897435897437,4203.589743589745,4434.3589743589755,4187.179487179489,0.0,2047.0,2048.0,0.0,0.0,4.0,4.0,4.0,4.0,0.0,4.0,4.0,4.0,4.0,0.0,4.0,1.0,4.0,4.0,4.0,4.0
10.0,0.0,4201.538461538463,4220.000000000002,4212.8205128205145,4188.20512820513,4189.23076923077,4231.282051282053,4199.487179487181,4198.46153846154,4206.153846153848,4185.641025641027,4503.589743589745,4201.0256410256425,4480.512820512822,4154.3589743589755,849.0,2047.0,2048.0,0.0,0.0,4.0,4.0,4.0,4.0,0.0,4.0,4.0,4.0,4.0,0.0,4.0,1.0,4.0,4.0,4.0,4.0
11.0,0.0,4197.94871794872,4217.94871794872,4206.666666666668,4189.743589743592,4183.076923076925,4230.769230769232,4199.487179487181,4197.94871794872,4207.179487179489,4186.153846153848,4506.153846153848,4200.512820512822,4469.743589743592,4142.564102564104,863.0,2047.0,2048.0,0.0,0.0,4.0,4.0,4.0,4.0,0.0,4.0,4.0,4.0,4.0,0.0,4.0,1.0,4.0,4.0,4.0,4.0
12.0,0.0,4211.794871794873,4222.564102564104,4217.94871794872,4196.923076923078,4188.71794871795,4228.71794871795,4208.71794871795,4206.153846153848,4216.923076923078,4186.153846153848,4459.487179487181,4215.384615384617,4407.692307692309,4191.282051282053,850.0,2047.0,2048.0,0.0,0.0,4.0,4.0,4.0,4.0,0.0,4.0,4.0,4.0,4.0,0.0,4.0,1.0,4.0,4.0,4.0,4.0
13.0,0.0,4215.897435897437,4229.743589743592,4222.564102564104,4202.051282051283,4188.20512820513,4237.435897435899,4217.435897435899,4215.384615384617,4219.487179487181,4186.153846153848,4464.615384615386,4212.8205128205145,4402.564102564104,4203.589743589745,87.0,2047.0,2048.0,0.0,0.0,4.0,4.0,4.0,4.0,0.0,4.0,4.0,4.0,4.0,0.0,4.0,1.0,4.0,4.0,4.0,4.0
14.0,0.0,4212.307692307694,4232.8205128205145,4221.538461538463,4203.076923076925,4185.641025641027,4241.538461538463,4218.46153846154,4216.410256410258,4216.410256410258,4186.153846153848,4522.051282051283,4206.666666666668,4421.538461538463,4191.282051282053,849.0,2047.0,2048.0,0.0,0.0,4.0,4.0,4.0,4.0,0.0,4.0,4.0,4.0,4.0,0.0,4.0,1.0,4.0,4.0,4.0,4.0
15.0,0.0,4220.000000000002,4232.307692307694,4228.20512820513,4204.615384615386,4187.692307692309,4233.846153846155,4213.333333333335,4212.8205128205145,4216.923076923078,4186.153846153848,4518.46153846154,4216.923076923078,4403.076923076925,4215.897435897437,863.0,2047.0,2048.0,0.0,0.0,4.0,4.0,4.0,4.0,0.0,4.0,4.0,4.0,4.0,0.0,4.0,1.0,4.0,4.0,4.0,4.0
16.0,0.0,4224.102564102565,4232.8205128205145,4227.692307692309,4202.564102564104,4186.153846153848,4228.71794871795,4203.589743589745,4209.23076923077,4215.897435897437,4186.153846153848,4489.743589743592,4215.897435897437,4385.641025641027,4224.615384615386,0.0,2047.0,2048.0,0.0,0.0,4.0,4.0,4.0,4.0,0.0,4.0,4.0,4.0,4.0,0.0,4.0,1.0,4.0,4.0,4.0,4.0
17.0,0.0,4219.487179487181,4230.256410256412,4227.692307692309,4199.487179487181,4188.20512820513,4229.743589743592,4201.0256410256425,4210.769230769232,4211.794871794873,4186.153846153848,4481.0256410256425,4217.435897435899,4373.846153846155,4214.3589743589755,0.0,2047.0,2048.0,0.0,0.0,4.0,4.0,4.0,4.0,0.0,4.0,4.0,4.0,4.0,0.0,4.0,1.0,4.0,4.0,4.0,4.0
18.0,0.0,4223.589743589745,4230.256410256412,4228.71794871795,4209.743589743592,4188.71794871795,4241.0256410256425,4212.8205128205145,4218.97435897436,4217.435897435899,4186.153846153848,4471.794871794873,4217.435897435899,4351.794871794873,4220.512820512822,0.0,2047.0,2048.0,0.0,0.0,4.0,4.0,4.0,4.0,0.0,4.0,4.0,4.0,4.0,0.0,4.0,1.0,4.0,4.0,4.0,4.0
19.0,0.0,4232.307692307694,4234.3589743589755,4232.8205128205145,4219.487179487181,4188.20512820513,4252.8205128205145,4222.051282051283,4222.051282051283,4224.615384615386,4186.153846153848,4460.512820512822,4216.923076923078,4296.410256410258,4238.97435897436,0.0,2047.0,2048.0,0.0,0.0,4.0,4.0,4.0,4.0,0.0,4.0,4.0,4.0,4.0,0.0,4.0,1.0,4.0,4.0,4.0,4.0
20.0,0.0,4223.589743589745,4226.153846153848,4229.743589743592,4207.692307692309,4184.615384615386,4248.71794871795,4213.846153846155,4216.923076923078,4221.0256410256425,4186.153846153848,4449.23076923077,4221.0256410256425,4229.743589743592,4235.384615384617,0.0,2047.0,2048.0,0.0,0.0,4.0,4.0,4.0,4.0,0.0,4.0,4.0,4.0,4.0,0.0,4.0,1.0,4.0,4.0,4.0,4.0
21.0,0.0,4210.769230769232,4212.307692307694,4215.897435897437,4193.846153846155,4182.051282051283,4245.641025641027,4208.20512820513,4214.3589743589755,4214.3589743589755,4186.153846153848,4423.589743589745,4214.871794871797,4205.128205128207,4216.923076923078,0.0,2047.0,2048.0,0.0,0.0,4.0,4.0,4.0,4.0,0.0,4.0,4.0,4.0,4.0,0.0,4.0,1.0,4.0,4.0,4.0,4.0
22.0,0.0,4212.8205128205145,4214.871794871797,4221.0256410256425,4199.487179487181,4189.743589743592,4252.8205128205145,4213.333333333335,4214.871794871797,4212.307692307694,4186.153846153848,4400.512820512822,4215.384615384617,4188.71794871795,4219.487179487181,0.0,2047.0,2048.0,0.0,0.0,4.0,4.0,4.0,4.0,0.0,4.0,4.0,4.0,4.0,0.0,4.0,1.0,4.0,4.0,4.0,4.0
23.0,0.0,4217.94871794872,4220.512820512822,4230.769230769232,4205.641025641027,4188.20512820513,4252.8205128205145,4213.333333333335,4216.410256410258,4214.3589743589755,4186.153846153848,4390.769230769232,4218.46153846154,4112.8205128205145,4233.333333333335,0.0,2047.0,2048.0,0.0,0.0,4.0,4.0,4.0,4.0,0.0,4.0,4.0,4.0,4.0,0.0,4.0,1.0,4.0,4.0,4.0,4.0
24.0,0.0,4214.871794871797,4217.435897435899,4225.128205128207,4204.615384615386,4185.128205128207,4248.20512820513,4205.128205128207,4214.3589743589755,4214.3589743589755,4186.153846153848,4371.794871794873,4217.435897435899,4033.333333333335,4233.333333333335,0.0,2047.0,2048.0,0.0,0.0,4.0,4.0,4.0,4.0,0.0,4.0,4.0,4.0,4.0,0.0,4.0,1.0,4.0,4.0,4.0,4.0
25.0,0.0,4210.256410256412,4215.384615384617,4218.97435897436,4200.000000000002,4188.71794871795,4247.179487179489,4202.051282051283,4209.743589743592,4210.256410256412,4186.153846153848,4336.923076923078,4218.97435897436,4022.564102564104,4224.615384615386,0.0,2047.0,2048.0,0.0,0.0,4.0,4.0,4.0,4.0,0.0,4.0,4.0,4.0,4.0,0.0,4.0,1.0,4.0,4.0,4.0,4.0
26.0,0.0,4201.538461538463,4209.23076923077,4210.769230769232,4188.71794871795,4184.615384615386,4244.102564102565,4201.538461538463,4208.20512820513,4208.20512820513,4185.641025641027,4303.589743589745,4214.871794871797,4033.846153846155,4222.564102564104,0.0,2047.0,2048.0,0.0,0.0,4.0,4.0,4.0,4.0,0.0,4.0,4.0,4.0,4.0,0.0,4.0,1.0,4.0,4.0,4.0,4.0
27.0,0.0,4200.000000000002,4208.20512820513,4213.846153846155,4188.71794871795,4182.564102564104,4244.615384615386,4200.512820512822,4212.8205128205145,4212.307692307694,4186.153846153848,4284.102564102565,4216.923076923078,4028.71794871795,4225.641025641027,0.0,2047.0,2048.0,0.0,0.0,4.0,4.0,4.0,4.0,0.0,4.0,4.0,4.0,4.0,0.0,4.0,1.0,4.0,4.0,4.0,4.0
28.0,0.0,4212.307692307694,4213.846153846155,4220.512820512822,4202.564102564104,4185.641025641027,4248.20512820513,4206.153846153848,4220.512820512822,4216.410256410258,4186.153846153848,4265.641025641027,4220.000000000002,4032.8205128205145,4227.692307692309,0.0,2047.0,2048.0,0.0,0.0,4.0,4.0,4.0,4.0,0.0,4.0,4.0,4.0,4.0,0.0,4.0,1.0,4.0,4.0,4.0,4.0
29.0,0.0,4213.846153846155,4208.71794871795,4222.051282051283,4200.000000000002,4191.282051282053,4244.615384615386,4209.743589743592,4216.410256410258,4211.282051282053,4185.641025641027,4229.743589743592,4218.46153846154,4036.9230769230785,4223.076923076925,0.0,2047.0,2048.0,0.0,0.0,4.0,4.0,4.0,4.0,0.0,4.0,4.0,4.0,4.0,0.0,4.0,1.0,4.0,4.0,4.0,4.0
30.0,0.0,4204.102564102565,4199.487179487181,4218.97435897436,4187.692307692309,4186.666666666668,4242.051282051283,4202.564102564104,4206.666666666668,4205.128205128207,4185.128205128207,4184.615384615386,4217.435897435899,4033.846153846155,4218.46153846154,0.0,2047.0,2048.0,0.0,0.0,4.0,4.0,4.0,4.0,0.0,4.0,4.0,4.0,4.0,0.0,4.0,1.0,4.0,4.0,4.0,4.0
31.0,0.0,4203.589743589745,4200.000000000002,4208.20512820513,4192.8205128205145,4172.8205128205145,4245.641025641027,4198.46153846154,4206.666666666668,4205.641025641027,4185.128205128207,4153.846153846155,4216.923076923078,4045.1282051282064,4215.897435897437,0.0,2047.0,2048.0,0.0,0.0,4.0,4.0,4.0,4.0,0.0,4.0,4.0,4.0,4.0,0.0,4.0,1.0,4.0,4.0,4.0,4.0
32.0,0.0,4213.846153846155,4203.076923076925,4213.846153846155,4200.512820512822,4180.512820512822,4252.8205128205145,4202.564102564104,4212.8205128205145,4204.102564102565,4185.128205128207,4143.589743589745,4220.512820512822,4058.9743589743603,4212.8205128205145,0.0,2047.0,2048.0,0.0,0.0,4.0,4.0,4.0,4.0,0.0,4.0,4.0,4.0,4.0,0.0,4.0,1.0,4.0,4.0,4.0,4.0
33.0,0.0,4217.94871794872,4204.102564102565,4225.128205128207,4200.000000000002,4189.743589743592,4261.538461538463,4205.641025641027,4212.8205128205145,4201.0256410256425,4185.128205128207,4111.282051282053,4218.97435897436,4069.230769230771,4214.3589743589755,0.0,2047.0,2048.0,0.0,0.0,4.0,4.0,4.0,4.0,0.0,4.0,4.0,4.0,4.0,0.0,4.0,1.0,4.0,4.0,4.0,4.0
34.0,0.0,4212.8205128205145,4205.641025641027,4222.564102564104,4200.000000000002,4188.20512820513,4264.615384615386,4201.0256410256425,4211.282051282053,4199.487179487181,4185.128205128207,4030.7692307692323,4218.97435897436,4082.564102564104,4214.3589743589755,0.0,2047.0,2048.0,0.0,0.0,4.0,4.0,4.0,4.0,0.0,4.0,4.0,4.0,4.0,0.0,4.0,1.0,4.0,4.0,4.0,4.0
35.0,0.0,4212.307692307694,4203.076923076925,4218.46153846154,4197.435897435899,4188.71794871795,4263.589743589745,4197.94871794872,4216.410256410258,4194.3589743589755,4185.128205128207,3940.512820512822,4227.179487179489,4097.435897435899,4213.846153846155,0.0,2047.0,2048.0,0.0,0.0,4.0,4.0,4.0,4.0,0.0,4.0,4.0,4.0,4.0,0.0,4.0,1.0,4.0,4.0,4.0,4.0
36.0,0.0,4209.743589743592,4201.0256410256425,4208.71794871795,4193.846153846155,4184.615384615386,4264.102564102565,4199.487179487181,4213.333333333335,4192.8205128205145,4185.128205128207,3871.7948717948734,4222.051282051283,4118.97435897436,4210.256410256412,0.0,2047.0,2048.0,0.0,0.0,4.0,4.0,4.0,4.0,0.0,4.0,4.0,4.0,4.0,0.0,4.0,1.0,4.0,4.0,4.0,4.0
37.0,0.0,4205.128205128207,4201.0256410256425,4205.128205128207,4192.8205128205145,4184.102564102565,4258.97435897436,4202.051282051283,4202.564102564104,4198.97435897436,4185.128205128207,3814.8717948717963,4221.0256410256425,4126.666666666668,4212.307692307694,0.0,2047.0,2048.0,0.0,0.0,4.0,4.0,4.0,4.0,0.0,4.0,4.0,4.0,4.0,0.0,4.0,1.0,4.0,4.0,4.0,4.0
38.0,0.0,4209.23076923077,4202.051282051283,4208.71794871795,4195.384615384617,4185.128205128207,4247.692307692309,4201.0256410256425,4200.512820512822,4203.076923076925,4185.128205128207,3786.1538461538476,4223.076923076925,4129.23076923077,4216.410256410258,0.0,2047.0,2048.0,0.0,0.0,4.0,4.0,4.0,4.0,0.0,4.0,4.0,4.0,4.0,0.0,4.0,1.0,4.0,4.0,4.0,4.0
39.0,0.0,4211.282051282053,4202.564102564104,4209.23076923077,4194.3589743589755,4184.615384615386,4246.666666666668,4196.923076923078,4205.128205128207,4200.000000000002,4185.128205128207,3771.2820512820526,4221.0256410256425,4136.923076923078,4205.128205128207,0.0,2047.0,2048.0,0.0,0.0,4.0,4.0,4.0,4.0,0.0,4.0,4.0,4.0,4.0,0.0,4.0,1.0,4.0,4.0,4.0,4.0
40.0,0.0,4205.641025641027,4198.46153846154,4210.256410256412,4189.743589743592,4187.692307692309,4250.769230769232,4194.3589743589755,4203.076923076925,4196.923076923078,4185.128205128207,3770.7692307692323,4224.615384615386,4118.97435897436,4201.538461538463,0.0,2047.0,2048.0,0.0,0.0,4.0,4.0,4.0,4.0,0.0,4.0,4.0,4.0,4.0,0.0,4.0,1.0,4.0,4.0,4.0,4.0
41.0,0.0,4207.692307692309,4198.46153846154,4209.23076923077,4188.71794871795,4185.641025641027,4246.153846153848,4192.8205128205145,4200.000000000002,4196.410256410258,4185.128205128207,3769.230769230771,4222.564102564104,4103.076923076925,4219.487179487181,0.0,2047.0,2048.0,0.0,0.0,4.0,4.0,4.0,4.0,0.0,4.0,4.0,4.0,4.0,0.0,4.0,1.0,4.0,4.0,4.0,4.0
42.0,0.0,4213.333333333335,4201.538461538463,4212.307692307694,4186.153846153848,4184.102564102565,4245.128205128207,4191.794871794873,4202.564102564104,4194.3589743589755,4185.128205128207,3734.358974358976,4223.589743589745,4110.769230769232,4220.512820512822,0.0,2047.0,2048.0,0.0,0.0,4.0,4.0,4.0,4.0,0.0,4.0,4.0,4.0,4.0,0.0,4.0,1.0,4.0,4.0,4.0,4.0
43.0,0.0,4207.692307692309,4203.589743589745,4214.3589743589755,4187.179487179489,4184.102564102565,4248.20512820513,4188.71794871795,4202.564102564104,4195.897435897437,4185.128205128207,3771.7948717948734,4226.666666666668,4118.97435897436,4206.153846153848,0.0,2047.0,2048.0,0.0,0.0,4.0,4.0,4.0,4.0,0.0,4.0,4.0,4.0,4.0,0.0,4.0,1.0,4.0,4.0,4.0,4.0
44.0,0.0,4205.641025641027,4205.641025641027,4209.743589743592,4196.410256410258,4186.666666666668,4248.71794871795,4187.692307692309,4198.46153846154,4201.538461538463,4185.128205128207,3895.384615384617,4216.923076923078,4134.871794871797,4200.512820512822,0.0,2047.0,2048.0,0.0,0.0,4.0,4.0,4.0,4.0,0.0,4.0,4.0,4.0,4.0,0.0,4.0,1.0,4.0,4.0,4.0,4.0
45.0,0.0,4213.846153846155,4207.179487179489,4212.307692307694,4201.538461538463,4188.20512820513,4247.179487179489,4192.307692307694,4196.923076923078,4203.076923076925,4185.128205128207,3952.3076923076937,4214.3589743589755,4140.000000000002,4203.076923076925,0.0,2047.0,2048.0,0.0,0.0,4.0,4.0,4.0,4.0,0.0,4.0,4.0,4.0,4.0,0.0,4.0,1.0,4.0,4.0,4.0,4.0
46.0,0.0,4215.897435897437,4209.23076923077,4216.410256410258,4194.3589743589755,4189.23076923077,4247.179487179489,4200.512820512822,4206.666666666668,4202.564102564104,4185.128205128207,3931.7948717948734,4221.0256410256425,4108.71794871795,4220.000000000002,0.0,2047.0,2048.0,0.0,0.0,4.0,4.0,4.0,4.0,0.0,4.0,4.0,4.0,4.0,0.0,4.0,1.0,4.0,4.0,4.0,4.0
47.0,0.0,4214.3589743589755,4214.871794871797,4220.000000000002,4192.307692307694,4194.871794871797,4256.923076923078,4205.128205128207,4212.8205128205145,4209.743589743592,4185.128205128207,3941.5384615384633,4223.589743589745,4101.0256410256425,4223.589743589745,0.0,2047.0,2048.0,0.0,0.0,4.0,4.0,4.0,4.0,0.0,4.0,4.0,4.0,4.0,0.0,4.0,1.0,4.0,4.0,4.0,4.0
48.0,0.0,4216.923076923078,4218.46153846154,4214.871794871797,4195.384615384617,4187.179487179489,4264.102564102565,4200.512820512822,4206.153846153848,4216.410256410258,4185.128205128207,3993.846153846155,4218.97435897436,4156.923076923078,4199.487179487181,0.0,2047.0,2048.0,0.0,0.0,4.0,4.0,4.0,4.0,0.0,4.0,4.0,4.0,4.0,0.0,4.0,1.0,4.0,4.0,4.0,4.0
49.0,0.0,4216.923076923078,4216.923076923078,4206.153846153848,4188.20512820513,4177.435897435899,4255.384615384617,4197.94871794872,4201.538461538463,4215.897435897437,4185.128205128207,4012.3076923076937,4223.076923076925,4128.71794871795,4214.871794871797,0.0,2047.0,2048.0,0.0,0.0,4.0,4.0,4.0,4.0,0.0,4.0,4.0,4.0,4.0,0.0,4.0,1.0,4.0,4.0,4.0,4.0
50.0,0.0,4217.94871794872,4219.487179487181,4218.46153846154,4184.102564102565,4188.71794871795,4246.153846153848,4198.97435897436,4204.102564102565,4212.8205128205145,4185.128205128207,3983.589743589745,4238.46153846154,4011.2820512820526,4262.051282051283,0.0,2047.0,2048.0,0.0,0.0,4.0,4.0,4.0,4.0,0.0,4.0,4.0,4.0,4.0,0.0,4.0,1.0,4.0,4.0,4.0,4.0
51.0,0.0,4219.487179487181,4220.000000000002,4223.076923076925,4186.666666666668,4191.794871794873,4247.692307692309,4195.384615384617,4204.615384615386,4201.0256410256425,4185.128205128207,3988.2051282051298,4231.282051282053,4006.6666666666683,4249.743589743592,0.0,2047.0,2048.0,0.0,0.0,4.0,4.0,4.0,4.0,0.0,4.0,4.0,4.0,4.0,0.0,4.0,1.0,4.0,4.0,4.0,4.0
52.0,0.0,4211.282051282053,4210.769230769232,4208.71794871795,4182.564102564104,4188.20512820513,4250.769230769232,4196.410256410258,4193.846153846155,4187.692307692309,4185.128205128207,4110.256410256412,4208.71794871795,4111.794871794873,4173.333333333335,0.0,2047.0,2048.0,0.0,0.0,4.0,4.0,4.0,4.0,0.0,4.0,4.0,4.0,4.0,0.0,4.0,1.0,4.0,4.0,4.0,4.0
53.0,0.0,4203.076923076925,4201.0256410256425,4200.512820512822,4173.333333333335,4190.256410256412,4246.666666666668,4196.410256410258,4184.615384615386,4184.102564102565,4185.128205128207,4149.743589743592,4211.794871794873,4107.692307692309,4161.0256410256425,0.0,2047.0,2048.0,0.0,0.0,4.0,4.0,4.0,4.0,0.0,4.0,4.0,4.0,4.0,0.0,4.0,1.0,4.0,4.0,4.0,4.0
54.0,0.0,4206.153846153848,4199.487179487181,4204.102564102565,4168.20512820513,4186.666666666668,4237.435897435899,4188.71794871795,4192.8205128205145,4185.641025641027,4185.128205128207,4052.8205128205145,4228.71794871795,3989.743589743591,4232.8205128205145,0.0,2047.0,2048.0,0.0,0.0,4.0,4.0,4.0,4.0,0.0,4.0,4.0,4.0,4.0,0.0,4.0,1.0,4.0,4.0,4.0,4.0
55.0,0.0,4210.769230769232,4210.769230769232,4214.871794871797,4169.743589743592,4184.102564102565,4233.846153846155,4186.153846153848,4197.435897435899,4191.794871794873,4185.128205128207,4107.692307692309,4227.692307692309,3986.1538461538476,4234.871794871797,0.0,2047.0,2048.0,0.0,0.0,4.0,4.0,4.0,4.0,0.0,4.0,4.0,4.0,4.0,0.0,4.0,1.0,4.0,4.0,4.0,4.0
56.0,0.0,4208.71794871795,4217.94871794872,4209.743589743592,4175.384615384617,4181.538461538463,4236.410256410258,4187.179487179489,4187.179487179489,4203.589743589745,4185.128205128207,4246.666666666668,4210.769230769232,4082.0512820512836,4189.23076923077,0.0,2047.0,2048.0,0.0,0.0,4.0,4.0,4.0,4.0,0.0,4.0,4.0,4.0,4.0,0.0,4.0,1.0,4.0,4.0,4.0,4.0
57.0,0.0,4216.410256410258,4217.94871794872,4211.282051282053,4182.051282051283,4184.102564102565,4230.769230769232,4185.641025641027,4192.8205128205145,4201.538461538463,4185.128205128207,4149.743589743592,4224.102564102565,4052.3076923076937,4248.71794871795,0.0,2047.0,2048.0,0.0,0.0,4.0,4.0,4.0,4.0,0.0,4.0,4.0,4.0,4.0,0.0,4.0,1.0,4.0,4.0,4.0,4.0
58.0,0.0,4223.076923076925,4218.46153846154,4225.128205128207,4178.46153846154,4188.20512820513,4224.102564102565,4188.20512820513,4202.051282051283,4193.333333333335,4185.128205128207,4043.589743589745,4241.0256410256425,3967.692307692309,4293.333333333335,0.0,2047.0,2048.0,0.0,0.0,4.0,4.0,4.0,4.0,0.0,4.0,4.0,4.0,4.0,0.0,4.0,1.0,4.0,4.0,4.0,4.0
59.0,0.0,4205.641025641027,4216.410256410258,4207.179487179489,4167.179487179489,4184.102564102565,4230.256410256412,4196.923076923078,4190.256410256412,4199.487179487181,4185.128205128207,4215.384615384617,4210.256410256412,4026.6666666666683,4192.307692307694,0.0,2047.0,2048.0,0.0,0.0,4.0,4.0,4.0,4.0,0.0,4.0,4.0,4.0,4.0,0.0,4.0,1.0,4.0,4.0,4.0,4.0
60.0,0.0,4193.846153846155,4213.333333333335,4190.769230769232,4171.282051282053,4188.71794871795,4237.435897435899,4200.000000000002,4185.641025641027,4203.589743589745,4185.128205128207,4323.076923076925,4197.94871794872,4135.384615384617,4136.923076923078,0.0,2047.0,2048.0,0.0,0.0,4.0,4.0,4.0,4.0,0.0,4.0,4.0,4.0,4.0,0.0,4.0,1.0,4.0,4.0,4.0,4.0
61.0,0.0,4201.538461538463,4212.8205128205145,4201.0256410256425,4186.153846153848,4189.743589743592,4238.97435897436,4190.769230769232,4192.307692307694,4199.487179487181,4185.128205128207,4222.564102564104,4216.923076923078,4163.076923076925,4215.384615384617,0.0,2047.0,2048.0,0.0,0.0,4.0,4.0,4.0,4.0,0.0,4.0,4.0,4.0,4.0,0.0,4.0,1.0,4.0,4.0,4.0,4.0
62.0,0.0,4201.0256410256425,4213.333333333335,4203.589743589745,4182.051282051283,4185.641025641027,4241.538461538463,4183.589743589745,4186.666666666668,4197.435897435899,4185.128205128207,4223.076923076925,4216.923076923078,4182.051282051283,4234.3589743589755,0.0,2047.0,2048.0,0.0,0.0,4.0,4.0,4.0,4.0,0.0,4.0,4.0,4.0,4.0,0.0,4.0,1.0,4.0,4.0,4.0,4.0
63.0,0.0,4196.923076923078,4213.333333333335,4198.97435897436,4176.923076923078,4186.666666666668,4245.641025641027,4190.769230769232,4188.71794871795,4200.512820512822,4185.128205128207,4284.615384615386,4210.256410256412,4245.641025641027,4180.000000000002,0.0,2047.0,2048.0,0.0,0.0,4.0,4.0,4.0,4.0,0.0,4.0,4.0,4.0,4.0,0.0,4.0,1.0,4.0,4.0,4.0,4.0
64.0,0.0,4209.743589743592,4222.051282051283,4206.153846153848,4194.3589743589755,4185.641025641027,4248.20512820513,4202.564102564104,4206.666666666668,4210.769230769232,4185.128205128207,4258.97435897436,4216.410256410258,4289.743589743592,4196.923076923078,669.0,2047.0,2048.0,0.0,0.0,4.0,4.0,4.0,4.0,0.0,4.0,4.0,4.0,4.0,0.0,4.0,1.0,4.0,4.0,4.0,4.0
65.0,0.0,4218.46153846154,4230.256410256412,4216.410256410258,4205.128205128207,4189.23076923077,4251.794871794873,4203.589743589745,4207.692307692309,4213.333333333335,4185.128205128207,4271.282051282053,4224.615384615386,4289.23076923077,4232.307692307694,828.0,2047.0,2048.0,0.0,0.0,4.0,4.0,4.0,4.0,0.0,4.0,4.0,4.0,4.0,0.0,4.0,1.0,4.0,4.0,4.0,4.0
66.0,0.0,4210.769230769232,4227.692307692309,4210.769230769232,4196.410256410258,4187.692307692309,4250.769230769232,4201.0256410256425,4197.435897435899,4204.102564102565,4185.128205128207,4301.0256410256425,4218.46153846154,4284.102564102565,4215.897435897437,796.0,2047.0,2048.0,0.0,0.0,4.0,4.0,4.0,4.0,0.0,4.0,4.0,4.0,4.0,0.0,4.0,1.0,4.0,4.0,4.0,4.0
67.0,0.0,4213.333333333335,4230.769230769232,4212.8205128205145,4198.46153846154,4184.102564102565,4246.666666666668,4203.589743589745,4201.0256410256425,4201.538461538463,4185.128205128207,4265.128205128207,4215.384615384617,4303.589743589745,4211.794871794873,777.0,2047.0,2048.0,0.0,0.0,4.0,4.0,4.0,4.0,0.0,4.0,4.0,4.0,4.0,0.0,4.0,1.0,4.0,4.0,4.0,4.0
68.0,0.0,4223.589743589745,4232.307692307694,4223.589743589745,4206.666666666668,4187.179487179489,4249.23076923077,4203.076923076925,4204.102564102565,4204.102564102565,4185.128205128207,4301.538461538463,4215.384615384617,4365.128205128207,4212.307692307694,0.0,2047.0,2048.0,0.0,0.0,4.0,4.0,4.0,4.0,0.0,4.0,4.0,4.0,4.0,0.0,4.0,1.0,4.0,4.0,4.0,4.0
69.0,0.0,4212.307692307694,4218.97435897436,4208.71794871795,4194.3589743589755,4187.179487179489,4257.94871794872,4199.487179487181,4194.871794871797,4204.102564102565,4185.128205128207,4385.128205128207,4201.538461538463,4421.538461538463,4171.794871794873,734.0,2047.0,2048.0,0.0,0.0,4.0,4.0,4.0,4.0,0.0,4.0,4.0,4.0,4.0,0.0,4.0,1.0,4.0,4.0,4.0,4.0
70.0,0.0,4201.0256410256425,4215.384615384617,4203.589743589745,4187.179487179489,4188.20512820513,4265.128205128207,4200.000000000002,4190.769230769232,4206.153846153848,4185.128205128207,4391.794871794873,4200.512820512822,4442.051282051283,4154.871794871797,789.0,2047.0,2048.0,0.0,0.0,4.0,4.0,4.0,4.0,0.0,4.0,4.0,4.0,4.0,0.0,4.0,1.0,4.0,4.0,4.0,4.0
71.0,0.0,4212.307692307694,4229.23076923077,4218.46153846154,4201.538461538463,4187.179487179489,4265.641025641027,4202.564102564104,4198.97435897436,4208.71794871795,4185.128205128207,4365.128205128207,4211.794871794873,4424.615384615386,4195.384615384617,761.0,2047.0,2048.0,0.0,0.0,4.0,4.0,4.0,4.0,0.0,4.0,4.0,4.0,4.0,0.0,4.0,1.0,4.0,4.0,4.0,4.0
72.0,0.0,4215.384615384617,4227.692307692309,4216.410256410258,4201.538461538463,4185.641025641027,4257.94871794872,4201.0256410256425,4201.0256410256425,4204.102564102565,4185.128205128207,4373.846153846155,4214.871794871797,4390.769230769232,4212.307692307694,566.0,2047.0,2048.0,0.0,0.0,4.0,4.0,4.0,4.0,0.0,4.0,4.0,4.0,4.0,0.0,4.0,1.0,4.0,4.0,4.0,4.0
73.0,0.0,4203.076923076925,4216.410256410258,4208.71794871795,4187.692307692309,4188.20512820513,4251.282051282053,4198.97435897436,4195.897435897437,4204.102564102565,4185.128205128207,4405.641025641027,4212.307692307694,4383.589743589745,4196.923076923078,0.0,2047.0,2048.0,0.0,0.0,4.0,4.0,4.0,4.0,0.0,4.0,4.0,4.0,4.0,0.0,4.0,1.0,4.0,4.0,4.0,4.0
74.0,0.0,4202.564102564104,4218.46153846154,4204.102564102565,4188.71794871795,4186.666666666668,4252.307692307694,4200.000000000002,4196.410256410258,4211.282051282053,4185.128205128207,4429.23076923077,4206.153846153848,4387.692307692309,4200.512820512822,845.0,2047.0,2048.0,0.0,0.0,4.0,4.0,4.0,4.0,0.0,4.0,4.0,4.0,4.0,0.0,4.0,1.0,4.0,4.0,4.0,4.0
75.0,0.0,4214.3589743589755,4220.512820512822,4210.256410256412,4196.923076923078,4188.71794871795,4254.3589743589755,4201.0256410256425,4198.97435897436,4212.307692307694,4185.128205128207,4414.871794871797,4211.282051282053,4370.256410256412,4214.3589743589755,840.0,2047.0,2048.0,0.0,0.0,4.0,4.0,4.0,4.0,0.0,4.0,4.0,4.0,4.0,0.0,4.0,1.0,4.0,4.0,4.0,4.0
76.0,0.0,4219.487179487181,4223.076923076925,4222.051282051283,4198.97435897436,4187.692307692309,4257.435897435899,4201.0256410256425,4203.076923076925,4212.8205128205145,4185.128205128207,4393.846153846155,4217.94871794872,4341.538461538463,4223.076923076925,857.0,2047.0,2048.0,0.0,0.0,4.0,4.0,4.0,4.0,0.0,4.0,4.0,4.0,4.0,0.0,4.0,1.0,4.0,4.0,4.0,4.0
77.0,0.0,4213.846153846155,4228.71794871795,4220.512820512822,4197.435897435899,4186.666666666668,4259.487179487181,4201.0256410256425,4204.102564102565,4216.923076923078,4185.128205128207,4403.589743589745,4210.769230769232,4328.71794871795,4224.615384615386,87.0,2047.0,2048.0,0.0,0.0,4.0,4.0,4.0,4.0,0.0,4.0,4.0,4.0,4.0,0.0,4.0,1.0,4.0,4.0,4.0,4.0
78.0,0.0,4213.333333333335,4224.102564102565,4215.384615384617,4194.3589743589755,4190.256410256412,4262.051282051283,4200.000000000002,4201.538461538463,4214.871794871797,4185.128205128207,4399.487179487181,4213.333333333335,4297.94871794872,4229.23076923077,845.0,2047.0,2048.0,0.0,0.0,4.0,4.0,4.0,4.0,0.0,4.0,4.0,4.0,4.0,0.0,4.0,1.0,4.0,4.0,4.0,4.0
79.0,0.0,4211.794871794873,4216.410256410258,4209.743589743592,4187.692307692309,4185.641025641027,4262.564102564104,4198.97435897436,4201.0256410256425,4210.769230769232,4185.128205128207,4383.076923076925,4215.897435897437,4240.512820512822,4230.256410256412,840.0,2047.0,2048.0,0.0,0.0,4.0,4.0,4.0,4.0,0.0,4.0,4.0,4.0,4.0,0.0,4.0,1.0,4.0,4.0,4.0,4.0
80.0,0.0,4206.153846153848,4218.46153846154,4211.794871794873,4186.666666666668,4188.20512820513,4257.94871794872,4200.512820512822,4203.589743589745,4214.3589743589755,4185.128205128207,4367.179487179488,4213.333333333335,4191.282051282053,4224.615384615386,857.0,2047.0,2048.0,0.0,0.0,4.0,4.0,4.0,4.0,0.0,4.0,4.0,4.0,4.0,0.0,4.0,1.0,4.0,4.0,4.0,4.0
81.0,0.0,4209.23076923077,4220.512820512822,4215.384615384617,4195.384615384617,4191.794871794873,4252.8205128205145,4201.538461538463,4206.153846153848,4214.3589743589755,4185.128205128207,4353.846153846155,4210.769230769232,4175.384615384617,4221.538461538463,87.0,2047.0,2048.0,0.0,0.0,4.0,4.0,4.0,4.0,0.0,4.0,4.0,4.0,4.0,0.0,4.0,1.0,4.0,4.0,4.0,4.0
82.0,0.0,4211.794871794873,4218.97435897436,4213.333333333335,4196.410256410258,4186.666666666668,4252.8205128205145,4196.410256410258,4203.076923076925,4207.179487179489,4185.128205128207,4346.666666666668,4210.769230769232,4177.94871794872,4224.102564102565,845.0,2047.0,2048.0,0.0,0.0,4.0,4.0,4.0,4.0,0.0,4.0,4.0,4.0,4.0,0.0,4.0,1.0,4.0,4.0,4.0,4.0
83.0,0.0,4210.256410256412,4217.435897435899,4215.897435897437,4190.256410256412,4185.128205128207,4256.923076923078,4192.307692307694,4199.487179487181,4206.153846153848,4185.128205128207,4331.794871794873,4217.435897435899,4133.846153846155,4229.23076923077,840.0,2047.0,2048.0,0.0,0.0,4.0,4.0,4.0,4.0,0.0,4.0,4.0,4.0,4.0,0.0,4.0,1.0,4.0,4.0,4.0,4.0
84.0,0.0,4210.256410256412,4215.897435897437,4212.8205128205145,4193.333333333335,4184.615384615386,4258.46153846154,4195.384615384617,4201.538461538463,4208.71794871795,4185.128205128207,4311.794871794873,4214.3589743589755,4053.846153846155,4232.307692307694,857.0,2047.0,2048.0,0.0,0.0,4.0,4.0,4.0,4.0,0.0,4.0,4.0,4.0,4.0,0.0,4.0,1.0,4.0,4.0,4.0,4.0
85.0,0.0,4211.282051282053,4217.94871794872,4211.282051282053,4200.000000000002,4188.71794871795,4261.538461538463,4201.538461538463,4204.615384615386,4204.615384615386,4185.128205128207,4289.23076923077,4211.282051282053,4017.435897435899,4228.20512820513,87.0,2047.0,2048.0,0.0,0.0,4.0,4.0,4.0,4.0,0.0,4.0,4.0,4.0,4.0,0.0,4.0,1.0,4.0,4.0,4.0,4.0
86.0,0.0,4202.051282051283,4216.923076923078,4209.23076923077,4192.307692307694,4189.23076923077,4260.512820512822,4196.923076923078,4200.000000000002,4200.000000000002,4185.128205128207,4256.923076923078,4215.384615384617,4025.1282051282064,4215.384615384617,845.0,2047.0,2048.0,0.0,0.0,4.0,4.0,4.0,4.0,0.0,4.0,4.0,4.0,4.0,0.0,4.0,1.0,4.0,4.0,4.0,4.0
87.0,0.0,4193.846153846155,4209.743589743592,4198.97435897436,4184.102564102565,4183.076923076925,4253.846153846155,4186.666666666668,4198.97435897436,4197.94871794872,4185.128205128207,4223.076923076925,4212.8205128205145,4028.2051282051298,4206.666666666668,840.0,2047.0,2048.0,0.0,0.0,4.0,4.0,4.0,4.0,0.0,4.0,4.0,4.0,4.0,0.0,4.0,1.0,4.0,4.0,4.0,4.0
88.0,0.0,4196.923076923078,4212.307692307694,4203.076923076925,4188.20512820513,4188.20512820513,4250.256410256412,4189.743589743592,4202.564102564104,4198.97435897436,4185.128205128207,4195.384615384617,4215.897435897437,4037.435897435899,4212.307692307694,857.0,2047.0,2048.0,0.0,0.0,4.0,4.0,4.0,4.0,0.0,4.0,4.0,4.0,4.0,0.0,4.0,1.0,4.0,4.0,4.0,4.0
89.0,0.0,4199.487179487181,4212.307692307694,4206.153846153848,4189.23076923077,4189.743589743592,4245.641025641027,4198.97435897436,4203.076923076925,4202.564102564104,4185.128205128207,4163.076923076925,4217.435897435899,4061.5384615384633,4217.94871794872,87.0,2047.0,2048.0,0.0,0.0,4.0,4.0,4.0,4.0,0.0,4.0,4.0,4.0,4.0,0.0,4.0,1.0,4.0,4.0,4.0,4.0
90.0,0.0,4198.46153846154,4204.102564102565,4204.615384615386,4186.666666666668,4186.153846153848,4246.153846153848,4199.487179487181,4202.051282051283,4203.589743589745,4185.128205128207,4118.97435897436,4214.871794871797,4076.9230769230785,4214.871794871797,845.0,2047.0,2048.0,0.0,0.0,4.0,4.0,4.0,4.0,0.0,4.0,4.0,4.0,4.0,0.0,4.0,1.0,4.0,4.0,4.0,4.0
91.0,0.0,4198.46153846154,4203.076923076925,4208.20512820513,4187.179487179489,4186.153846153848,4254.871794871797,4195.897435897437,4201.538461538463,4201.538461538463,4185.128205128207,4089.230769230771,4217.435897435899,4085.641025641027,4213.333333333335,840.0,2047.0,2048.0,0.0,0.0,4.0,4.0,4.0,4.0,0.0,4.0,4.0,4.0,4.0,0.0,4.0,1.0,4.0,4.0,4.0,4.0
92.0,0.0,4202.051282051283,4206.153846153848,4205.641025641027,4189.23076923077,4183.589743589745,4263.076923076925,4199.487179487181,4202.564102564104,4203.076923076925,4185.128205128207,4061.5384615384633,4215.897435897437,4098.97435897436,4212.8205128205145,857.0,2047.0,2048.0,0.0,0.0,4.0,4.0,4.0,4.0,0.0,4.0,4.0,4.0,4.0,0.0,4.0,1.0,4.0,4.0,4.0,4.0
93.0,0.0,4197.94871794872,4202.564102564104,4206.153846153848,4189.23076923077,4187.692307692309,4262.051282051283,4201.538461538463,4197.94871794872,4199.487179487181,4184.102564102565,3971.7948717948734,4216.923076923078,4114.871794871797,4199.487179487181,87.0,2047.0,2048.0,0.0,0.0,4.0,4.0,4.0,4.0,0.0,4.0,4.0,4.0,4.0,0.0,4.0,1.0,4.0,4.0,4.0,4.0
94.0,0.0,4191.794871794873,4198.97435897436,4202.564102564104,4187.179487179489,4187.692307692309,4256.923076923078,4193.846153846155,4195.897435897437,4188.71794871795,4184.102564102565,3836.4102564102577,4215.384615384617,4125.128205128207,4187.179487179489,845.0,2047.0,2048.0,0.0,0.0,4.0,4.0,4.0,4.0,0.0,4.0,4.0,4.0,4.0,0.0,4.0,1.0,4.0,4.0,4.0,4.0
95.0,0.0,4194.871794871797,4201.0256410256425,4198.97435897436,4187.179487179489,4186.666666666668,4251.794871794873,4191.282051282053,4200.000000000002,4181.538461538463,4184.102564102565,3749.743589743591,4216.923076923078,4129.743589743592,4193.846153846155,840.0,2047.0,2048.0,0.0,0.0,4.0,4.0,4.0,4.0,0.0,4.0,4.0,4.0,4.0,0.0,4.0,1.0,4.0,4.0,4.0,4.0
96.0,0.0,4201.0256410256425,4201.0256410256425,4205.128205128207,4188.20512820513,4188.71794871795,4246.666666666668,4200.000000000002,4191.794871794873,4183.076923076925,4184.102564102565,3710.7692307692323,4223.076923076925,4137.94871794872,4202.051282051283,857.0,2047.0,2048.0,0.0,0.0,4.0,4.0,4.0,4.0,0.0,4.0,4.0,4.0,4.0,0.0,4.0,1.0,4.0,4.0,4.0,4.0
97.0,0.0,4194.3589743589755,4200.512820512822,4201.538461538463,4186.666666666668,4184.102564102565,4246.153846153848,4197.435897435899,4181.0256410256425,4188.20512820513,4184.102564102565,3725.641025641027,4214.871794871797,4156.410256410258,4187.692307692309,87.0,2047.0,2048.0,0.0,0.0,4.0,4.0,4.0,4.0,0.0,4.0,4.0,4.0,4.0,0.0,4.0,1.0,4.0,4.0,4.0,4.0
98.0,0.0,4189.23076923077,4202.564102564104,4200.000000000002,4186.666666666668,4185.128205128207,4246.153846153848,4185.641025641027,4191.282051282053,4189.23076923077,4183.589743589745,3723.589743589745,4218.46153846154,4170.256410256412,4189.743589743592,845.0,2047.0,2048.0,0.0,0.0,4.0,4.0,4.0,4.0,0.0,4.0,4.0,4.0,4.0,0.0,4.0,1.0,4.0,4.0,4.0,4.0
99.0,0.0,4198.97435897436,4203.589743589745,4207.692307692309,4187.179487179489,4187.179487179489,4243.076923076925,4190.769230769232,4208.71794871795,4185.128205128207,4185.128205128207,3587.1794871794887,4237.435897435899,4128.20512820513,4242.564102564104,840.0,2047.0,2048.0,0.0,0.0,4.0,4.0,4.0,4.0,0.0,4.0,4.0,4.0,4.0,0.0,4.0,1.0,4.0,4.0,4.0,4.0
100.0,0.0,4198.46153846154,4201.0256410256425,4206.666666666668,4186.666666666668,4187.179487179489,4250.256410256412,4208.20512820513,4204.615384615386,4189.743589743592,4186.666666666668,3558.9743589743607,4230.769230769232,4099.487179487181,4230.769230769232,857.0,2047.0,2048.0,0.0,0.0,4.0,4.0,4.0,4.0,0.0,4.0,4.0,4.0,4.0,0.0,4.0,1.0,4.0,4.0,4.0,4.0
101.0,0.0,4185.641025641027,4201.538461538463,4200.000000000002,4185.641025641027,4187.692307692309,4265.641025641027,4212.8205128205145,4196.410256410258,4198.46153846154,4185.641025641027,3712.8205128205145,4206.666666666668,4161.0256410256425,4154.3589743589755,87.0,2047.0,2048.0,0.0,0.0,4.0,4.0,4.0,4.0,0.0,4.0,4.0,4.0,4.0,0.0,4.0,1.0,4.0,4.0,4.0,4.0
102.0,0.0,4187.179487179489,4208.20512820513,4200.000000000002,4181.538461538463,4185.128205128207,4262.564102564104,4203.589743589745,4200.000000000002,4192.8205128205145,4185.128205128207,3730.7692307692323,4211.794871794873,4176.923076923078,4174.871794871797,845.0,2047.0,2048.0,0.0,0.0,4.0,4.0,4.0,4.0,0.0,4.0,4.0,4.0,4.0,0.0,4.0,1.0,4.0,4.0,4.0,4.0
103.0,0.0,4204.615384615386,4205.128205128207,4216.410256410258,4182.051282051283,4189.743589743592,4251.794871794873,4201.0256410256425,4200.512820512822,4184.102564102565,4184.615384615386,3689.743589743591,4235.384615384617,4118.46153846154,4236.923076923078,840.0,2047.0,2048.0,0.0,0.0,4.0,4.0,4.0,4.0,0.0,4.0,4.0,4.0,4.0,0.0,4.0,1.0,4.0,4.0,4.0,4.0
104.0,0.0,4213.846153846155,4200.512820512822,4220.512820512822,4188.71794871795,4189.743589743592,4252.8205128205145,4207.179487179489,4202.051282051283,4192.8205128205145,4184.615384615386,3777.435897435899,4227.179487179489,4146.153846153848,4213.846153846155,857.0,2047.0,2048.0,0.0,0.0,4.0,4.0,4.0,4.0,0.0,4.0,4.0,4.0,4.0,0.0,4.0,1.0,4.0,4.0,4.0,4.0
105.0,0.0,4210.256410256412,4211.282051282053,4208.20512820513,4191.282051282053,4186.153846153848,4255.897435897437,4207.179487179489,4208.71794871795,4201.538461538463,4184.102564102565,3841.0256410256425,4211.282051282053,4195.897435897437,4182.051282051283,87.0,2047.0,2048.0,0.0,0.0,4.0,4.0,4.0,4.0,0.0,4.0,4.0,4.0,4.0,0.0,4.0,1.0,4.0,4.0,4.0,4.0
106.0,0.0,4211.282051282053,4225.128205128207,4209.743589743592,4190.256410256412,4187.692307692309,4255.384615384617,4199.487179487181,4209.23076923077,4198.97435897436,4184.102564102565,3853.846153846155,4219.487179487181,4149.743589743592,4209.743589743592,845.0,2047.0,2048.0,0.0,0.0,4.0,4.0,4.0,4.0,0.0,4.0,4.0,4.0,4.0,0.0,4.0,1.0,4.0,4.0,4.0,4.0
107.0,0.0,4214.871794871797,4226.666666666668,4209.23076923077,4192.8205128205145,4185.128205128207,4255.384615384617,4197.435897435899,4210.769230769232,4202.564102564104,4184.102564102565,3880.512820512822,4224.102564102565,4118.97435897436,4235.897435897437,840.0,2047.0,2048.0,0.0,0.0,4.0,4.0,4.0,4.0,0.0,4.0,4.0,4.0,4.0,0.0,4.0,1.0,4.0,4.0,4.0,4.0
108.0,0.0,4211.794871794873,4221.0256410256425,4210.769230769232,4190.769230769232,4190.769230769232,4251.282051282053,4203.076923076925,4209.743589743592,4202.564102564104,4184.102564102565,3906.1538461538476,4225.128205128207,4124.615384615386,4229.23076923077,857.0,2047.0,2048.0,0.0,0.0,4.0,4.0,4.0,4.0,0.0,4.0,4.0,4.0,4.0,0.0,4.0,1.0,4.0,4.0,4.0,4.0
109.0,0.0,4201.0256410256425,4215.897435897437,4208.20512820513,4180.512820512822,4191.794871794873,4248.20512820513,4196.410256410258,4189.23076923077,4194.3589743589755,4184.615384615386,4034.358974358976,4212.8205128205145,4128.20512820513,4188.71794871795,87.0,2047.0,2048.0,0.0,0.0,4.0,4.0,4.0,4.0,0.0,4.0,4.0,4.0,4.0,0.0,4.0,1.0,4.0,4.0,4.0,4.0
110.0,0.0,4190.769230769232,4218.97435897436,4192.307692307694,4173.846153846155,4183.076923076925,4246.666666666668,4190.256410256412,4175.384615384617,4198.97435897436,4185.641025641027,4176.410256410258,4197.94871794872,4156.923076923078,4146.153846153848,845.0,2047.0,2048.0,0.0,0.0,4.0,4.0,4.0,4.0,0.0,4.0,4.0,4.0,4.0,0.0,4.0,1.0,4.0,4.0,4.0,4.0
111.0,0.0,4197.435897435899,4227.692307692309,4198.46153846154,4174.871794871797,4184.102564102565,4240.000000000002,4193.846153846155,4191.794871794873,4203.589743589745,4186.153846153848,4102.051282051283,4220.512820512822,4106.153846153848,4196.410256410258,840.0,2047.0,2048.0,0.0,0.0,4.0,4.0,4.0,4.0,0.0,4.0,4.0,4.0,4.0,0.0,4.0,1.0,4.0,4.0,4.0,4.0
112.0,0.0,4209.23076923077,4223.589743589745,4211.794871794873,4178.97435897436,4188.20512820513,4237.94871794872,4193.846153846155,4207.692307692309,4193.333333333335,4186.153846153848,3989.230769230771,4237.435897435899,4006.6666666666683,4267.179487179489,857.0,2047.0,2048.0,0.0,0.0,4.0,4.0,4.0,4.0,0.0,4.0,4.0,4.0,4.0,0.0,4.0,1.0,4.0,4.0,4.0,4.0
113.0,0.0,4209.743589743592,4218.46153846154,4211.282051282053,4182.051282051283,4191.282051282053,4244.615384615386,4186.666666666668,4200.512820512822,4188.20512820513,4185.641025641027,4063.589743589745,4224.615384615386,4023.0769230769247,4236.923076923078,87.0,2047.0,2048.0,0.0,0.0,4.0,4.0,4.0,4.0,0.0,4.0,4.0,4.0,4.0,0.0,4.0,1.0,4.0,4.0,4.0,4.0
114.0,0.0,4200.512820512822,4223.589743589745,4204.102564102565,4184.102564102565,4189.23076923077,4247.179487179489,4184.615384615386,4186.153846153848,4196.410256410258,4186.153846153848,4223.589743589745,4207.179487179489,4109.743589743592,4161.538461538463,845.0,2047.0,2048.0,0.0,0.0,4.0,4.0,4.0,4.0,0.0,4.0,4.0,4.0,4.0,0.0,4.0,1.0,4.0,4.0,4.0,4.0
115.0,0.0,4196.923076923078,4226.666666666668,4202.051282051283,4185.641025641027,4184.615384615386,4249.743589743592,4188.20512820513,4188.20512820513,4203.076923076925,4185.641025641027,4252.8205128205145,4202.564102564104,4126.666666666668,4156.410256410258,840.0,2047.0,2048.0,0.0,0.0,4.0,4.0,4.0,4.0,0.0,4.0,4.0,4.0,4.0,0.0,4.0,1.0,4.0,4.0,4.0,4.0
116.0,0.0,4205.128205128207,4222.051282051283,4208.20512820513,4182.051282051283,4189.23076923077,4246.666666666668,4188.20512820513,4201.0256410256425,4200.000000000002,4186.153846153848,4141.538461538463,4221.538461538463,4056.4102564102577,4219.487179487181,857.0,2047.0,2048.0,0.0,0.0,4.0,4.0,4.0,4.0,0.0,4.0,4.0,4.0,4.0,0.0,4.0,1.0,4.0,4.0,4.0,4.0
117.0,0.0,4204.102564102565,4217.94871794872,4204.615384615386,4174.871794871797,4187.692307692309,4234.871794871797,4188.20512820513,4198.46153846154,4193.333333333335,4186.153846153848,4086.6666666666683,4230.256410256412,4029.230769230771,4245.128205128207,87.0,2047.0,2048.0,0.0,0.0,4.0,4.0,4.0,4.0,0.0,4.0,4.0,4.0,4.0,0.0,4.0,1.0,4.0,4.0,4.0,4.0
118.0,0.0,4187.179487179489,4214.871794871797,4191.794871794873,4165.641025641027,4185.641025641027,4230.256410256412,4185.641025641027,4184.615384615386,4193.333333333335,4185.641025641027,4131.282051282053,4217.94871794872,4137.94871794872,4193.333333333335,845.0,2047.0,2048.0,0.0,0.0,4.0,4.0,4.0,4.0,0.0,4.0,4.0,4.0,4.0,0.0,4.0,1.0,4.0,4.0,4.0,4.0
119.0,0.0,4184.615384615386,4213.846153846155,4185.128205128207,4165.641025641027,4186.666666666668,4234.3589743589755,4181.538461538463,4179.487179487181,4198.97435897436,4186.153846153848,4226.153846153848,4204.102564102565,4292.307692307694,4151.794871794873,840.0,2047.0,2048.0,0.0,0.0,4.0,4.0,4.0,4.0,0.0,4.0,4.0,4.0,4.0,0.0,4.0,1.0,4.0,4.0,4.0,4.0
120.0,0.0,4200.000000000002,4218.97435897436,4192.8205128205145,4181.0256410256425,4187.179487179489,4233.846153846155,4184.102564102565,4183.589743589745,4203.589743589745,4186.666666666668,4297.435897435899,4203.076923076925,4335.897435897437,4182.051282051283,857.0,2047.0,2048.0,0.0,0.0,4.0,4.0,4.0,4.0,0.0,4.0,4.0,4.0,4.0,0.0,4.0,1.0,4.0,4.0,4.0,4.0
121.0,0.0,4198.97435897436,4220.512820512822,4203.076923076925,4185.128205128207,4190.769230769232,4233.333333333335,4184.102564102565,4184.615384615386,4196.410256410258,4186.153846153848,4283.076923076925,4212.8205128205145,4329.743589743592,4189.23076923077,87.0,2047.0,2048.0,0.0,0.0,4.0,4.0,4.0,4.0,0.0,4.0,4.0,4.0,4.0,0.0,4.0,1.0,4.0,4.0,4.0,4.0
122.0,0.0,4185.128205128207,4213.333333333335,4192.8205128205145,4172.8205128205145,4186.666666666668,4233.846153846155,4182.564102564104,4184.102564102565,4189.23076923077,4185.128205128207,4240.000000000002,4210.256410256412,4346.666666666668,4157.94871794872,845.0,2047.0,2048.0,0.0,0.0,4.0,4.0,4.0,4.0,0.0,4.0,4.0,4.0,4.0,0.0,4.0,1.0,4.0,4.0,4.0,4.0
123.0,0.0,4192.307692307694,4213.846153846155,4189.743589743592,4170.769230769232,4185.128205128207,4231.794871794873,4182.564102564104,4187.692307692309,4188.20512820513,4184.615384615386,4201.538461538463,4214.3589743589755,4343.076923076925,4196.410256410258,840.0,2047.0,2048.0,0.0,0.0,4.0,4.0,4.0,4.0,0.0,4.0,4.0,4.0,4.0,0.0,4.0,1.0,4.0,4.0,4.0,4.0
124.0,0.0,4200.000000000002,4215.897435897437,4198.97435897436,4176.923076923078,4190.256410256412,4239.487179487181,4183.076923076925,4191.282051282053,4188.71794871795,4184.615384615386,4211.794871794873,4221.0256410256425,4361.0256410256425,4221.0256410256425,857.0,2047.0,2048.0,0.0,0.0,4.0,4.0,4.0,4.0,0.0,4.0,4.0,4.0,4.0,0.0,4.0,1.0,4.0,4.0,4.0,4.0
125.0,0.0,4186.153846153848,4207.179487179489,4190.769230769232,4169.743589743592,4188.20512820513,4243.589743589745,4181.538461538463,4188.20512820513,4190.769230769232,4184.615384615386,4267.179487179489,4208.71794871795,4378.46153846154,4170.769230769232,87.0,2047.0,2048.0,0.0,0.0,4.0,4.0,4.0,4.0,0.0,4.0,4.0,4.0,4.0,0.0,4.0,1.0,4.0,4.0,4.0,4.0
126.0,0.0,4177.94871794872,4203.076923076925,4182.564102564104,4164.615384615386,4186.153846153848,4235.897435897437,4182.564102564104,4182.051282051283,4194.3589743589755,4185.128205128207,4313.333333333335,4206.666666666668,4378.97435897436,4143.076923076925,845.0,2047.0,2048.0,0.0,0.0,4.0,4.0,4.0,4.0,0.0,4.0,4.0,4.0,4.0,0.0,4.0,1.0,4.0,4.0,4.0,4.0
127.0,0.0,4183.076923076925,4213.333333333335,4184.102564102565,4175.384615384617,4183.076923076925,4239.487179487181,4186.666666666668,4184.102564102565,4200.000000000002,4185.128205128207,4339.487179487181,4208.20512820513,4392.8205128205145,4164.102564102565,840.0,2047.0,2048.0,0.0,0.0,4.0,4.0,4.0,4.0,0.0,4.0,4.0,4.0,4.0,0.0,4.0,1.0,4.0,4.0,4.0,4.0
128.0,0.0,4186.153846153848,4218.46153846154,4190.769230769232,4178.97435897436,4185.641025641027,4248.20512820513,4188.20512820513,4192.307692307694,4201.0256410256425,4185.128205128207,4354.3589743589755,4205.128205128207,4388.71794871795,4171.794871794873,857.0,2047.0,2048.0,0.0,0.0,4.0,4.0,4.0,4.0,0.0,4.0,4.0,4.0,4.0,0.0,4.0,1.0,4.0,4.0,4.0,4.0
0.0,0.0,4190.256410256412,4214.3589743589755,4197.94871794872,4174.3589743589755,4188.71794871795,4245.128205128207,4186.666666666668,4197.435897435899,4200.512820512822,4185.128205128207,4301.538461538463,4210.769230769232,4360.000000000002,4183.589743589745,669.0,2047.0,2048.0,0.0,0.0,4.0,4.0,4.0,4.0,0.0,4.0,4.0,4.0,4.0,0.0,4.0,1.0,4.0,4.0,4.0,4.0
1.0,0.0,4195.384615384617,4215.384615384617,4198.97435897436,4176.923076923078,4184.102564102565,4242.051282051283,4186.153846153848,4194.3589743589755,4200.512820512822,4185.128205128207,4254.3589743589755,4214.3589743589755,4334.3589743589755,4206.153846153848,828.0,2047.0,2048.0,0.0,0.0,4.0,4.0,4.0,4.0,0.0,4.0,4.0,4.0,4.0,0.0,4.0,1.0,4.0,4.0,4.0,4.0
2.0,0.0,4194.871794871797,4221.0256410256425,4206.153846153848,4186.153846153848,4187.179487179489,4248.71794871795,4185.128205128207,4186.153846153848,4197.94871794872,4185.128205128207,4317.435897435899,4213.846153846155,4331.282051282053,4192.8205128205145,796.0,2047.0,2048.0,0.0,0.0,4.0,4.0,4.0,4.0,0.0,4.0,4.0,4.0,4.0,0.0,4.0,1.0,4.0,4.0,4.0,4.0
3.0,0.0,4188.20512820513,4218.97435897436,4202.564102564104,4186.153846153848,4188.71794871795,4247.179487179489,4183.076923076925,4181.0256410256425,4198.46153846154,4185.128205128207,4388.71794871795,4205.641025641027,4355.384615384617,4169.23076923077,777.0,2047.0,2048.0,0.0,0.0,4.0,4.0,4.0,4.0,0.0,4.0,4.0,4.0,4.0,0.0,4.0,1.0,4.0,4.0,4.0,4.0
4.0,0.0,4184.615384615386,4216.410256410258,4191.794871794873,4180.512820512822,4188.71794871795,4243.589743589745,4183.076923076925,4177.94871794872,4204.615384615386,4185.128205128207,4401.0256410256425,4198.97435897436,4392.307692307694,4165.128205128207,0.0,2047.0,2048.0,0.0,0.0,4.0,4.0,4.0,4.0,0.0,4.0,4.0,4.0,4.0,0.0,4.0,1.0,4.0,4.0,4.0,4.0
5.0,0.0,4193.846153846155,4224.615384615386,4200.000000000002,4184.102564102565,4188.71794871795,4248.20512820513,4187.692307692309,4183.076923076925,4209.23076923077,4185.128205128207,4387.692307692309,4208.71794871795,4372.8205128205145,4181.538461538463,734.0,2047.0,2048.0,0.0,0.0,4.0,4.0,4.0,4.0,0.0,4.0,4.0,4.0,4.0,0.0,4.0,1.0,4.0,4.0,4.0,4.0
6.0,0.0,4196.923076923078,4228.20512820513,4204.102564102565,4188.71794871795,4183.589743589745,4247.179487179489,4190.256410256412,4191.794871794873,4207.692307692309,4185.128205128207,4382.564102564104,4210.256410256412,4339.487179487181,4196.923076923078,789.0,2047.0,2048.0,0.0,0.0,4.0,4.0,4.0,4.0,0.0,4.0,4.0,4.0,4.0,0.0,4.0,1.0,4.0,4.0,4.0,4.0
7.0,0.0,4189.743589743592,4223.589743589745,4200.512820512822,4188.71794871795,4186.153846153848,4237.435897435899,4191.282051282053,4187.692307692309,4203.076923076925,4185.128205128207,4373.846153846155,4206.153846153848,4345.128205128207,4195.384615384617,761.0,2047.0,2048.0,0.0,0.0,4.0,4.0,4.0,4.0,0.0,4.0,4.0,4.0,4.0,0.0,4.0,1.0,4.0,4.0,4.0,4.0
8.0,0.0,4189.743589743592,4220.512820512822,4198.46153846154,4187.692307692309,4187.692307692309,4233.846153846155,4192.8205128205145,4186.666666666668,4201.0256410256425,4185.128205128207,4353.333333333335,4205.128205128207,4331.282051282053,4191.282051282053,566.0,2047.0,2048.0,0.0,0.0,4.0,4.0,4.0,4.0,0.0,4.0,4.0,4.0,4.0,0.0,4.0,1.0,4.0,4.0,4.0,4.0
9.0,0.0,4199.487179487181,4225.128205128207,4198.46153846154,4188.71794871795,4186.666666666668,4241.538461538463,4192.307692307694,4191.794871794873,4202.051282051283,4185.128205128207,4358.97435897436,4207.179487179489,4311.282051282053,4191.794871794873,0.0,2047.0,2048.0,0.0,0.0,4.0,4.0,4.0,4.0,0.0,4.0,4.0,4.0,4.0,0.0,4.0,1.0,4.0,4.0,4.0,4.0
10.0,0.0,4202.564102564104,4229.743589743592,4206.666666666668,4190.769230769232,4189.743589743592,4249.743589743592,4188.71794871795,4190.769230769232,4204.615384615386,4185.128205128207,4368.71794871795,4214.3589743589755,4313.333333333335,4202.051282051283,838.0,2047.0,2048.0,0.0,0.0,4.0,4.0,4.0,4.0,0.0,4.0,4.0,4.0,4.0,0.0,4.0,1.0,4.0,4.0,4.0,4.0
11.0,0.0,4198.46153846154,4227.179487179489,4207.179487179489,4190.256410256412,4186.666666666668,4246.153846153848,4185.641025641027,4186.153846153848,4205.641025641027,4185.128205128207,4348.71794871795,4210.256410256412,4291.794871794873,4208.20512820513,835.0,2047.0,2048.0,0.0,0.0,4.0,4.0,4.0,4.0,0.0,4.0,4.0,4.0,4.0,0.0,4.0,1.0,4.0,4.0,4.0,4.0
12.0,0.0,4197.94871794872,4227.179487179489,4204.615384615386,4186.153846153848,4186.153846153848,4235.897435897437,4189.743589743592,4185.128205128207,4201.538461538463,4185.128205128207,4333.333333333335,4206.153846153848,4235.384615384617,4201.538461538463,843.0,2047.0,2048.0,0.0,0.0,4.0,4.0,4.0,4.0,0.0,4.0,4.0,4.0,4.0,0.0,4.0,1.0,4.0,4.0,4.0,4.0
13.0,0.0,4199.487179487181,4229.743589743592,4206.153846153848,4186.153846153848,4187.179487179489,4240.512820512822,4192.8205128205145,4186.153846153848,4200.000000000002,4185.128205128207,4338.97435897436,4208.20512820513,4191.282051282053,4201.538461538463,87.0,2047.0,2048.0,0.0,0.0,4.0,4.0,4.0,4.0,0.0,4.0,4.0,4.0,4.0,0.0,4.0,1.0,4.0,4.0,4.0,4.0
14.0,0.0,4197.94871794872,4227.179487179489,4204.615384615386,4188.20512820513,4187.179487179489,4247.179487179489,4190.256410256412,4187.179487179489,4204.102564102565,4185.128205128207,4331.794871794873,4208.20512820513,4173.333333333335,4208.71794871795,838.0,2047.0,2048.0,0.0,0.0,4.0,4.0,4.0,4.0,0.0,4.0,4.0,4.0,4.0,0.0,4.0,1.0,4.0,4.0,4.0,4.0
15.0,0.0,4190.769230769232,4217.94871794872,4198.97435897436,4178.97435897436,4191.794871794873,4235.384615384617,4183.076923076925,4182.051282051283,4198.97435897436,4185.128205128207,4305.641025641027,4209.743589743592,4157.435897435899,4206.153846153848,835.0,2047.0,2048.0,0.0,0.0,4.0,4.0,4.0,4.0,0.0,4.0,4.0,4.0,4.0,0.0,4.0,1.0,4.0,4.0,4.0,4.0
16.0,0.0,4181.0256410256425,4208.20512820513,4186.666666666668,4165.641025641027,4186.666666666668,4224.615384615386,4177.94871794872,4177.435897435899,4192.8205128205145,4185.128205128207,4286.153846153848,4205.128205128207,4127.692307692309,4197.94871794872,0.0,2047.0,2048.0,0.0,0.0,4.0,4.0,4.0,4.0,0.0,4.0,4.0,4.0,4.0,0.0,4.0,1.0,4.0,4.0,4.0,4.0
17.0,0.0,4183.076923076925,4208.20512820513,4190.769230769232,4169.23076923077,4184.615384615386,4230.769230769232,4178.46153846154,4181.538461538463,4197.94871794872,4185.128205128207,4277.435897435899,4210.769230769232,4068.2051282051298,4199.487179487181,0.0,2047.0,2048.0,0.0,0.0,4.0,4.0,4.0,4.0,0.0,4.0,4.0,4.0,4.0,0.0,4.0,1.0,4.0,4.0,4.0,4.0
18.0,0.0,4190.256410256412,4215.897435897437,4201.538461538463,4183.076923076925,4187.179487179489,4233.846153846155,4173.846153846155,4181.538461538463,4197.94871794872,4185.128205128207,4256.410256410258,4214.871794871797,4000.512820512822,4205.128205128207,0.0,2047.0,2048.0,0.0,0.0,4.0,4.0,4.0,4.0,0.0,4.0,4.0,4.0,4.0,0.0,4.0,1.0,4.0,4.0,4.0,4.0
19.0,0.0,4183.076923076925,4216.410256410258,4194.871794871797,4183.076923076925,4185.128205128207,4226.153846153848,4168.20512820513,4172.307692307694,4192.8205128205145,4185.128205128207,4221.538461538463,4206.153846153848,3974.358974358976,4201.538461538463,0.0,2047.0,2048.0,0.0,0.0,4.0,4.0,4.0,4.0,0.0,4.0,4.0,4.0,4.0,0.0,4.0,1.0,4.0,4.0,4.0,4.0
20.0,0.0,4173.333333333335,4204.102564102565,4189.743589743592,4172.8205128205145,4186.666666666668,4221.0256410256425,4172.307692307694,4170.256410256412,4194.3589743589755,4185.128205128207,4199.487179487181,4209.743589743592,3982.564102564104,4197.94871794872,0.0,2047.0,2048.0,0.0,0.0,4.0,4.0,4.0,4.0,0.0,4.0,4.0,4.0,4.0,0.0,4.0,1.0,4.0,4.0,4.0,4.0
21.0,0.0,4174.3589743589755,4198.46153846154,4185.128205128207,4169.23076923077,4186.666666666668,4217.435897435899,4176.923076923078,4177.435897435899,4193.333333333335,4185.128205128207,4178.97435897436,4213.846153846155,3989.743589743591,4203.076923076925,0.0,2047.0,2048.0,0.0,0.0,4.0,4.0,4.0,4.0,0.0,4.0,4.0,4.0,4.0,0.0,4.0,1.0,4.0,4.0,4.0,4.0
22.0,0.0,4175.897435897437,4201.538461538463,4183.589743589745,4169.23076923077,4189.23076923077,4215.897435897437,4177.94871794872,4182.051282051283,4190.769230769232,4185.128205128207,4140.000000000002,4212.307692307694,3997.435897435899,4204.102564102565,0.0,2047.0,2048.0,0.0,0.0,4.0,4.0,4.0,4.0,0.0,4.0,4.0,4.0,4.0,0.0,4.0,1.0,4.0,4.0,4.0,4.0
23.0,0.0,4177.94871794872,4202.051282051283,4187.692307692309,4170.769230769232,4187.692307692309,4217.94871794872,4185.128205128207,4187.179487179489,4198.97435897436,4185.128205128207,4116.923076923078,4212.8205128205145,4013.333333333335,4203.076923076925,0.0,2047.0,2048.0,0.0,0.0,4.0,4.0,4.0,4.0,0.0,4.0,4.0,4.0,4.0,0.0,4.0,1.0,4.0,4.0,4.0,4.0
24.0,0.0,4178.97435897436,4197.435897435899,4185.641025641027,4171.282051282053,4184.615384615386,4219.487179487181,4189.743589743592,4190.769230769232,4203.589743589745,4185.128205128207,4116.410256410258,4212.8205128205145,4031.7948717948734,4207.179487179489,0.0,2047.0,2048.0,0.0,0.0,4.0,4.0,4.0,4.0,0.0,4.0,4.0,4.0,4.0,0.0,4.0,1.0,4.0,4.0,4.0,4.0
25.0,0.0,4175.897435897437,4191.282051282053,4184.615384615386,4168.20512820513,4187.179487179489,4217.435897435899,4181.538461538463,4184.615384615386,4193.333333333335,4185.128205128207,4100.000000000002,4217.435897435899,4042.0512820512836,4205.128205128207,0.0,2047.0,2048.0,0.0,0.0,4.0,4.0,4.0,4.0,0.0,4.0,4.0,4.0,4.0,0.0,4.0,1.0,4.0,4.0,4.0,4.0
26.0,0.0,4180.512820512822,4197.435897435899,4185.641025641027,4173.333333333335,4182.564102564104,4216.410256410258,4182.051282051283,4184.615384615386,4193.846153846155,4185.128205128207,4082.0512820512836,4217.435897435899,4051.2820512820526,4201.538461538463,0.0,2047.0,2048.0,0.0,0.0,4.0,4.0,4.0,4.0,0.0,4.0,4.0,4.0,4.0,0.0,4.0,1.0,4.0,4.0,4.0,4.0
27.0,0.0,4188.71794871795,4202.564102564104,4189.23076923077,4181.538461538463,4184.102564102565,4221.538461538463,4185.128205128207,4191.794871794873,4197.435897435899,4185.128205128207,4067.1794871794887,4216.923076923078,4066.6666666666683,4205.641025641027,0.0,2047.0,2048.0,0.0,0.0,4.0,4.0,4.0,4.0,0.0,4.0,4.0,4.0,4.0,0.0,4.0,1.0,4.0,4.0,4.0,4.0
28.0,0.0,4178.46153846154,4188.71794871795,4186.666666666668,4174.3589743589755,4189.743589743592,4220.512820512822,4174.3589743589755,4186.153846153848,4189.23076923077,4185.128205128207,3983.589743589745,4216.923076923078,4074.8717948717963,4197.94871794872,0.0,2047.0,2048.0,0.0,0.0,4.0,4.0,4.0,4.0,0.0,4.0,4.0,4.0,4.0,0.0,4.0,1.0,4.0,4.0,4.0,4.0
29.0,0.0,4165.641025641027,4178.97435897436,4178.46153846154,4164.615384615386,4186.153846153848,4211.282051282053,4171.794871794873,4184.102564102565,4182.051282051283,4185.128205128207,3827.1794871794887,4216.410256410258,4061.0256410256425,4186.666666666668,0.0,2047.0,2048.0,0.0,0.0,4.0,4.0,4.0,4.0,0.0,4.0,4.0,4.0,4.0,0.0,4.0,1.0,4.0,4.0,4.0,4.0
30.0,0.0,4170.256410256412,4185.641025641027,4182.564102564104,4168.20512820513,4185.128205128207,4211.794871794873,4182.051282051283,4193.333333333335,4182.051282051283,4185.128205128207,3735.384615384617,4222.051282051283,4051.7948717948734,4187.179487179489,0.0,2047.0,2048.0,0.0,0.0,4.0,4.0,4.0,4.0,0.0,4.0,4.0,4.0,4.0,0.0,4.0,1.0,4.0,4.0,4.0,4.0
31.0,0.0,4171.282051282053,4189.23076923077,4180.000000000002,4170.769230769232,4183.589743589745,4217.435897435899,4183.589743589745,4189.743589743592,4185.641025641027,4185.128205128207,3745.641025641027,4216.410256410258,4091.2820512820526,4185.641025641027,0.0,2047.0,2048.0,0.0,0.0,4.0,4.0,4.0,4.0,0.0,4.0,4.0,4.0,4.0,0.0,4.0,1.0,4.0,4.0,4.0,4.0
32.0,0.0,4166.153846153848,4186.666666666668,4174.871794871797,4166.153846153848,4184.102564102565,4214.3589743589755,4181.0256410256425,4181.0256410256425,4187.179487179489,4185.128205128207,3722.0512820512836,4215.384615384617,4118.46153846154,4187.179487179489,0.0,2047.0,2048.0,0.0,0.0,4.0,4.0,4.0,4.0,0.0,4.0,4.0,4.0,4.0,0.0,4.0,1.0,4.0,4.0,4.0,4.0
33.0,0.0,4169.23076923077,4184.615384615386,4180.512820512822,4163.589743589745,4186.666666666668,4212.8205128205145,4184.102564102565,4185.128205128207,4187.692307692309,4185.128205128207,3665.1282051282064,4225.641025641027,4095.384615384617,4191.282051282053,0.0,2047.0,2048.0,0.0,0.0,4.0,4.0,4.0,4.0,0.0,4.0,4.0,4.0,4.0,0.0,4.0,1.0,4.0,4.0,4.0,4.0
34.0,0.0,4167.179487179489,4183.076923076925,4175.384615384617,4165.641025641027,4185.128205128207,4208.71794871795,4180.000000000002,4185.641025641027,4187.692307692309,4185.128205128207,3679.487179487181,4217.435897435899,4101.538461538463,4177.94871794872,0.0,2047.0,2048.0,0.0,0.0,4.0,4.0,4.0,4.0,0.0,4.0,4.0,4.0,4.0,0.0,4.0,1.0,4.0,4.0,4.0,4.0
35.0,0.0,4156.410256410258,4183.076923076925,4171.794871794873,4166.153846153848,4189.743589743592,4205.128205128207,4178.97435897436,4181.0256410256425,4186.666666666668,4185.128205128207,3694.8717948717963,4213.333333333335,4126.153846153848,4160.512820512822,0.0,2047.0,2048.0,0.0,0.0,4.0,4.0,4.0,4.0,0.0,4.0,4.0,4.0,4.0,0.0,4.0,1.0,4.0,4.0,4.0,4.0
36.0,0.0,4159.487179487181,4184.615384615386,4174.3589743589755,4162.564102564104,4188.71794871795,4211.282051282053,4183.076923076925,4187.179487179489,4185.128205128207,4185.128205128207,3662.564102564104,4220.512820512822,4103.589743589745,4170.256410256412,0.0,2047.0,2048.0,0.0,0.0,4.0,4.0,4.0,4.0,0.0,4.0,4.0,4.0,4.0,0.0,4.0,1.0,4.0,4.0,4.0,4.0
37.0,0.0,4166.153846153848,4187.692307692309,4173.846153846155,4164.615384615386,4185.641025641027,4211.794871794873,4175.897435897437,4187.179487179489,4184.615384615386,4185.128205128207,3669.230769230771,4218.46153846154,4093.333333333335,4177.435897435899,0.0,2047.0,2048.0,0.0,0.0,4.0,4.0,4.0,4.0,0.0,4.0,4.0,4.0,4.0,0.0,4.0,1.0,4.0,4.0,4.0,4.0
38.0,0.0,4160.000000000002,4185.641025641027,4169.743589743592,4169.743589743592,4187.692307692309,4198.97435897436,4168.20512820513,4176.923076923078,4180.000000000002,4185.128205128207,3679.487179487181,4215.384615384617,4108.20512820513,4172.307692307694,0.0,2047.0,2048.0,0.0,0.0,4.0,4.0,4.0,4.0,0.0,4.0,4.0,4.0,4.0,0.0,4.0,1.0,4.0,4.0,4.0,4.0
39.0,0.0,4164.102564102565,4182.564102564104,4174.3589743589755,4165.128205128207,4185.128205128207,4195.384615384617,4176.410256410258,4182.051282051283,4179.487179487181,4185.128205128207,3630.7692307692323,4224.615384615386,4075.8974358974374,4201.538461538463,0.0,2047.0,2048.0,0.0,0.0,4.0,4.0,4.0,4.0,0.0,4.0,4.0,4.0,4.0,0.0,4.0,1.0,4.0,4.0,4.0,4.0
40.0,0.0,4192.8205128205145,4193.846153846155,4208.20512820513,4158.97435897436,4187.692307692309,4209.743589743592,4187.179487179489,4197.435897435899,4188.20512820513,4185.128205128207,3628.71794871795,4236.410256410258,4047.1794871794887,4226.666666666668,0.0,2047.0,2048.0,0.0,0.0,4.0,4.0,4.0,4.0,0.0,4.0,4.0,4.0,4.0,0.0,4.0,1.0,4.0,4.0,4.0,4.0
41.0,0.0,4207.692307692309,4198.46153846154,4225.641025641027,4158.46153846154,4186.666666666668,4215.897435897437,4186.666666666668,4192.307692307694,4195.384615384617,4185.128205128207,3725.641025641027,4218.97435897436,4123.076923076925,4192.8205128205145,0.0,2047.0,2048.0,0.0,0.0,4.0,4.0,4.0,4.0,0.0,4.0,4.0,4.0,4.0,0.0,4.0,1.0,4.0,4.0,4.0,4.0
42.0,0.0,4194.3589743589755,4193.846153846155,4200.000000000002,4166.666666666668,4182.564102564104,4212.8205128205145,4181.0256410256425,4184.102564102565,4194.3589743589755,4185.128205128207,3709.743589743591,4213.333333333335,4168.71794871795,4181.538461538463,0.0,2047.0,2048.0,0.0,0.0,4.0,4.0,4.0,4.0,0.0,4.0,4.0,4.0,4.0,0.0,4.0,1.0,4.0,4.0,4.0,4.0
43.0,0.0,4194.871794871797,4212.8205128205145,4191.282051282053,4176.923076923078,4186.666666666668,4215.384615384617,4179.487179487181,4193.846153846155,4191.282051282053,4185.128205128207,3619.487179487181,4238.97435897436,4076.4102564102577,4228.71794871795,0.0,2047.0,2048.0,0.0,0.0,4.0,4.0,4.0,4.0,0.0,4.0,4.0,4.0,4.0,0.0,4.0,1.0,4.0,4.0,4.0,4.0
44.0,0.0,4214.3589743589755,4240.000000000002,4214.871794871797,4165.641025641027,4189.23076923077,4216.923076923078,4184.102564102565,4194.871794871797,4189.23076923077,4185.128205128207,3696.9230769230785,4235.384615384617,4068.2051282051298,4247.692307692309,0.0,2047.0,2048.0,0.0,0.0,4.0,4.0,4.0,4.0,0.0,4.0,4.0,4.0,4.0,0.0,4.0,1.0,4.0,4.0,4.0,4.0
45.0,0.0,4219.487179487181,4231.282051282053,4224.615384615386,4138.97435897436,4190.769230769232,4209.743589743592,4186.153846153848,4189.23076923077,4186.666666666668,4185.128205128207,3773.846153846155,4224.102564102565,4146.666666666668,4217.94871794872,0.0,2047.0,2048.0,0.0,0.0,4.0,4.0,4.0,4.0,0.0,4.0,4.0,4.0,4.0,0.0,4.0,1.0,4.0,4.0,4.0,4.0
46.0,0.0,4202.051282051283,4214.871794871797,4201.538461538463,4135.897435897437,4189.743589743592,4206.666666666668,4182.051282051283,4196.410256410258,4186.666666666668,4185.128205128207,3700.0000000000014,4236.923076923078,4075.8974358974374,4228.71794871795,0.0,2047.0,2048.0,0.0,0.0,4.0,4.0,4.0,4.0,0.0,4.0,4.0,4.0,4.0,0.0,4.0,1.0,4.0,4.0,4.0,4.0
47.0,0.0,4181.538461538463,4230.256410256412,4180.512820512822,4155.384615384617,4191.794871794873,4210.769230769232,4187.692307692309,4194.3589743589755,4194.871794871797,4185.128205128207,3782.564102564104,4229.23076923077,4021.5384615384633,4207.692307692309,0.0,2047.0,2048.0,0.0,0.0,4.0,4.0,4.0,4.0,0.0,4.0,4.0,4.0,4.0,0.0,4.0,1.0,4.0,4.0,4.0,4.0
48.0,0.0,4173.846153846155,4246.666666666668,4180.512820512822,4153.333333333335,4195.897435897437,4207.692307692309,4192.8205128205145,4173.846153846155,4205.128205128207,4185.128205128207,4049.743589743591,4205.128205128207,4144.615384615386,4135.897435897437,0.0,2047.0,2048.0,0.0,0.0,4.0,4.0,4.0,4.0,0.0,4.0,4.0,4.0,4.0,0.0,4.0,1.0,4.0,4.0,4.0,4.0
49.0,0.0,4177.435897435899,4235.384615384617,4174.3589743589755,4134.3589743589755,4185.641025641027,4192.8205128205145,4177.94871794872,4166.666666666668,4198.46153846154,4185.128205128207,4092.3076923076937,4212.8205128205145,4113.333333333335,4197.435897435899,0.0,2047.0,2048.0,0.0,0.0,4.0,4.0,4.0,4.0,0.0,4.0,4.0,4.0,4.0,0.0,4.0,1.0,4.0,4.0,4.0,4.0
50.0,0.0,4179.487179487181,4218.97435897436,4172.8205128205145,4129.743589743592,4182.051282051283,4178.46153846154,4163.076923076925,4173.333333333335,4180.512820512822,4185.128205128207,3951.2820512820526,4246.153846153848,3957.9487179487196,4303.076923076925,0.0,2047.0,2048.0,0.0,0.0,4.0,4.0,4.0,4.0,0.0,4.0,4.0,4.0,4.0,0.0,4.0,1.0,4.0,4.0,4.0,4.0
51.0,0.0,4166.153846153848,4217.94871794872,4173.333333333335,4139.487179487181,4190.769230769232,4186.666666666668,4171.282051282053,4170.256410256412,4176.923076923078,4185.128205128207,4000.0000000000014,4234.871794871797,4097.435897435899,4198.46153846154,0.0,2047.0,2048.0,0.0,0.0,4.0,4.0,4.0,4.0,0.0,4.0,4.0,4.0,4.0,0.0,4.0,1.0,4.0,4.0,4.0,4.0
52.0,0.0,4145.641025641027,4218.46153846154,4157.94871794872,4140.512820512822,4197.94871794872,4201.538461538463,4179.487179487181,4156.410256410258,4182.564102564104,4185.128205128207,4238.97435897436,4184.102564102565,4384.102564102565,4023.0769230769247,0.0,2047.0,2048.0,0.0,0.0,4.0,4.0,4.0,4.0,0.0,4.0,4.0,4.0,4.0,0.0,4.0,1.0,4.0,4.0,4.0,4.0
53.0,0.0,4144.615384615386,4207.692307692309,4154.3589743589755,4135.384615384617,4193.846153846155,4193.846153846155,4163.589743589745,4145.641025641027,4170.256410256412,4185.128205128207,4343.589743589745,4178.46153846154,4437.94871794872,4055.8974358974374,0.0,2047.0,2048.0,0.0,0.0,4.0,4.0,4.0,4.0,0.0,4.0,4.0,4.0,4.0,0.0,4.0,1.0,4.0,4.0,4.0,4.0
54.0,0.0,4154.3589743589755,4197.94871794872,4158.46153846154,4141.538461538463,4177.94871794872,4183.076923076925,4152.8205128205145,4154.3589743589755,4157.435897435899,4185.128205128207,4235.384615384617,4206.153846153848,4377.94871794872,4151.282051282053,0.0,2047.0,2048.0,0.0,0.0,4.0,4.0,4.0,4.0,0.0,4.0,4.0,4.0,4.0,0.0,4.0,1.0,4.0,4.0,4.0,4.0
55.0,0.0,4154.871794871797,4199.487179487181,4161.0256410256425,4151.282051282053,4181.0256410256425,4188.20512820513,4163.076923076925,4158.46153846154,4164.102564102565,4185.128205128207,4265.128205128207,4203.076923076925,4433.846153846155,4112.8205128205145,0.0,2047.0,2048.0,0.0,0.0,4.0,4.0,4.0,4.0,0.0,4.0,4.0,4.0,4.0,0.0,4.0,1.0,4.0,4.0,4.0,4.0
56.0,0.0,4152.307692307694,4208.20512820513,4165.641025641027,4153.333333333335,4191.282051282053,4183.076923076925,4169.743589743592,4153.333333333335,4174.3589743589755,4185.128205128207,4370.769230769232,4194.3589743589755,4463.076923076925,4091.2820512820526,0.0,2047.0,2048.0,0.0,0.0,4.0,4.0,4.0,4.0,0.0,4.0,4.0,4.0,4.0,0.0,4.0,1.0,4.0,4.0,4.0,4.0
57.0,0.0,4158.46153846154,4214.871794871797,4169.743589743592,4151.794871794873,4187.179487179489,4166.153846153848,4165.641025641027,4161.538461538463,4181.0256410256425,4185.128205128207,4311.282051282053,4209.743589743592,4414.871794871797,4152.307692307694,0.0,2047.0,2048.0,0.0,0.0,4.0,4.0,4.0,4.0,0.0,4.0,4.0,4.0,4.0,0.0,4.0,1.0,4.0,4.0,4.0,4.0
58.0,0.0,4167.692307692309,4217.435897435899,4178.46153846154,4156.923076923078,4186.666666666668,4167.692307692309,4166.666666666668,4168.20512820513,4184.615384615386,4185.128205128207,4294.871794871797,4224.102564102565,4417.435897435899,4183.589743589745,0.0,2047.0,2048.0,0.0,0.0,4.0,4.0,4.0,4.0,0.0,4.0,4.0,4.0,4.0,0.0,4.0,1.0,4.0,4.0,4.0,4.0
59.0,0.0,4167.692307692309,4216.923076923078,4173.846153846155,4163.076923076925,4187.179487179489,4178.97435897436,4170.769230769232,4163.076923076925,4187.692307692309,4185.128205128207,4438.97435897436,4204.102564102565,4467.179487179488,4144.615384615386,0.0,2047.0,2048.0,0.0,0.0,4.0,4.0,4.0,4.0,0.0,4.0,4.0,4.0,4.0,0.0,4.0,1.0,4.0,4.0,4.0,4.0
60.0,0.0,4164.615384615386,4216.410256410258,4169.743589743592,4166.666666666668,4189.23076923077,4183.589743589745,4172.8205128205145,4165.641025641027,4191.282051282053,4185.128205128207,4477.94871794872,4193.846153846155,4478.97435897436,4121.538461538463,0.0,2047.0,2048.0,0.0,0.0,4.0,4.0,4.0,4.0,0.0,4.0,4.0,4.0,4.0,0.0,4.0,1.0,4.0,4.0,4.0,4.0
61.0,0.0,4169.23076923077,4217.435897435899,4177.94871794872,4169.743589743592,4191.794871794873,4184.102564102565,4174.3589743589755,4173.333333333335,4190.769230769232,4185.128205128207,4378.46153846154,4209.743589743592,4451.282051282053,4152.307692307694,0.0,2047.0,2048.0,0.0,0.0,4.0,4.0,4.0,4.0,0.0,4.0,4.0,4.0,4.0,0.0,4.0,1.0,4.0,4.0,4.0,4.0
62.0,0.0,4177.435897435899,4216.410256410258,4180.000000000002,4168.71794871795,4187.179487179489,4183.589743589745,4169.743589743592,4169.743589743592,4183.076923076925,4185.128205128207,4378.97435897436,4211.282051282053,4437.94871794872,4180.000000000002,0.0,2047.0,2048.0,0.0,0.0,4.0,4.0,4.0,4.0,0.0,4.0,4.0,4.0,4.0,0.0,4.0,1.0,4.0,4.0,4.0,4.0
63.0,0.0,4184.102564102565,4217.94871794872,4186.666666666668,4173.333333333335,4187.179487179489,4184.102564102565,4169.23076923077,4170.256410256412,4186.153846153848,4185.128205128207,4453.846153846155,4207.179487179489,4435.897435897437,4167.179487179489,0.0,2047.0,2048.0,0.0,0.0,4.0,4.0,4.0,4.0,0.0,4.0,4.0,4.0,4.0,0.0,4.0,1.0,4.0,4.0,4.0,4.0
