COUNTER,INTERPOLATED,AF3,F7,F3,FC5,T7,P7,O1,O2,P8,T8,FC6,F4,F8,AF4,RAW_CQ,GYROX,GYROY,MARKER,SYNC,CQ_AF3,CQ_F7,CQ_F3,CQ_FC5,CQ_T7,CQ_P7,CQ_O1,CQ_O2,CQ_P8,CQ_T8,CQ_FC6,CQ_F4,CQ_F8,CQ_AF4,CQ_CMS,CQ_DRL
3.0,0.0,4212.8205128205145,4960.512820512822,4150.256410256412,4208.71794871795,4238.97435897436,4197.435897435899,4177.435897435899,4189.743589743592,4185.128205128207,4183.076923076925,4193.846153846155,4203.589743589745,4205.128205128207,4187.179487179489,784.0,2047.0,2048.0,0.0,0.0,0.0,4.0,0.0,0.0,0.0,0.0,0.0,0.0,0.0,0.0,0.0,0.0,0.0,0.0,4.0,4.0
4.0,0.0,4204.102564102565,4950.769230769232,4193.333333333335,4201.538461538463,4256.410256410258,4195.897435897437,4198.46153846154,4183.076923076925,4176.410256410258,4186.153846153848,4188.71794871795,4203.076923076925,4206.666666666668,4186.153846153848,0.0,2047.0,2048.0,0.0,0.0,0.0,4.0,0.0,0.0,0.0,0.0,0.0,0.0,0.0,0.0,0.0,0.0,0.0,0.0,4.0,4.0
5.0,0.0,4206.666666666668,4951.282051282053,4214.3589743589755,4207.179487179489,4259.487179487181,4200.512820512822,4205.128205128207,4185.128205128207,4176.923076923078,4191.794871794873,4196.923076923078,4208.71794871795,4208.20512820513,4189.23076923077,785.0,2047.0,2048.0,0.0,0.0,0.0,4.0,0.0,0.0,0.0,4.0,0.0,0.0,0.0,0.0,0.0,0.0,0.0,0.0,4.0,4.0
6.0,0.0,4206.666666666668,4948.71794871795,4188.71794871795,4214.3589743589755,4250.256410256412,4197.94871794872,4179.487179487181,4182.564102564104,4176.410256410258,4189.743589743592,4192.307692307694,4210.769230769232,4200.512820512822,4188.20512820513,806.0,2047.0,2048.0,0.0,0.0,0.0,4.0,0.0,0.0,0.0,4.0,4.0,0.0,0.0,0.0,0.0,0.0,0.0,0.0,4.0,4.0
7.0,0.0,4195.384615384617,4933.333333333335,4155.897435897437,4199.487179487181,4242.564102564104,4186.153846153848,4163.589743589745,4182.051282051283,4181.538461538463,4186.153846153848,4185.128205128207,4208.71794871795,4194.871794871797,4184.102564102565,819.0,2047.0,2048.0,0.0,0.0,0.0,4.0,0.0,0.0,0.0,4.0,4.0,4.0,0.0,0.0,0.0,0.0,0.0,0.0,4.0,4.0
8.0,0.0,4196.410256410258,4932.307692307693,4142.051282051283,4192.307692307694,4239.487179487181,4181.538461538463,4176.410256410258,4190.769230769232,4181.538461538463,4187.692307692309,4189.743589743592,4205.128205128207,4196.410256410258,4184.615384615386,649.0,2047.0,2048.0,0.0,0.0,0.0,4.0,0.0,0.0,0.0,4.0,4.0,4.0,4.0,0.0,0.0,0.0,0.0,0.0,4.0,4.0
9.0,0.0,4210.769230769232,4941.538461538463,4188.20512820513,4204.102564102565,4258.97435897436,4194.3589743589755,4195.897435897437,4190.769230769232,4176.923076923078,4186.153846153848,4193.333333333335,4209.23076923077,4194.3589743589755,4185.641025641027,0.0,2047.0,2048.0,0.0,0.0,0.0,4.0,0.0,0.0,0.0,4.0,4.0,4.0,4.0,0.0,0.0,0.0,0.0,0.0,4.0,4.0
10.0,0.0,4203.589743589745,4930.256410256412,4245.641025641027,4201.0256410256425,4277.94871794872,4202.564102564104,4210.256410256412,4185.128205128207,4179.487179487181,4185.128205128207,4185.128205128207,4202.564102564104,4185.641025641027,4182.051282051283,855.0,2047.0,2048.0,0.0,0.0,0.0,4.0,0.0,0.0,0.0,4.0,4.0,4.0,4.0,0.0,0.0,0.0,4.0,0.0,4.0,4.0
11.0,0.0,4191.282051282053,4916.923076923078,4215.384615384617,4194.871794871797,4257.94871794872,4192.307692307694,4201.0256410256425,4183.076923076925,4176.410256410258,4187.179487179489,4182.051282051283,4198.46153846154,4180.000000000002,4176.410256410258,827.0,2047.0,2048.0,0.0,0.0,0.0,4.0,0.0,0.0,0.0,4.0,4.0,4.0,4.0,0.0,0.0,0.0,4.0,4.0,4.0,4.0
12.0,0.0,4207.179487179489,4925.128205128207,4131.282051282053,4203.589743589745,4224.102564102565,4187.179487179489,4165.641025641027,4183.076923076925,4170.769230769232,4186.666666666668,4190.256410256412,4210.256410256412,4188.71794871795,4186.666666666668,850.0,2047.0,2048.0,0.0,0.0,0.0,4.0,0.0,0.0,0.0,4.0,4.0,4.0,4.0,0.0,4.0,0.0,4.0,4.0,4.0,4.0
13.0,0.0,4209.23076923077,4922.564102564104,4121.538461538463,4201.538461538463,4232.8205128205145,4197.435897435899,4166.153846153848,4186.153846153848,4174.3589743589755,4184.615384615386,4189.743589743592,4209.23076923077,4194.871794871797,4193.333333333335,406.0,2047.0,2048.0,0.0,0.0,0.0,4.0,0.0,0.0,0.0,4.0,4.0,4.0,4.0,0.0,4.0,4.0,4.0,4.0,4.0,4.0
14.0,0.0,4193.846153846155,4907.692307692309,4204.615384615386,4192.8205128205145,4269.23076923077,4202.564102564104,4211.282051282053,4186.153846153848,4183.589743589745,4186.666666666668,4191.794871794873,4207.692307692309,4192.307692307694,4182.564102564104,855.0,2047.0,2048.0,0.0,0.0,0.0,4.0,0.0,0.0,0.0,4.0,4.0,4.0,4.0,0.0,4.0,4.0,4.0,4.0,4.0,4.0
15.0,0.0,4203.589743589745,4913.333333333335,4244.615384615386,4200.000000000002,4267.179487179489,4201.0256410256425,4227.692307692309,4183.589743589745,4186.153846153848,4186.666666666668,4204.615384615386,4209.743589743592,4196.410256410258,4184.615384615386,827.0,2047.0,2048.0,0.0,0.0,0.0,4.0,0.0,0.0,0.0,4.0,4.0,4.0,4.0,0.0,4.0,4.0,4.0,4.0,4.0,4.0
16.0,0.0,4216.410256410258,4921.538461538463,4165.128205128207,4206.153846153848,4237.435897435899,4196.923076923078,4180.512820512822,4189.23076923077,4184.615384615386,4186.153846153848,4208.71794871795,4209.23076923077,4202.051282051283,4195.384615384617,0.0,2047.0,2048.0,0.0,0.0,0.0,4.0,0.0,0.0,0.0,4.0,4.0,4.0,4.0,0.0,4.0,4.0,4.0,4.0,4.0,4.0
17.0,0.0,4208.20512820513,4915.384615384617,4074.358974358976,4200.000000000002,4216.410256410258,4189.743589743592,4143.076923076925,4204.102564102565,4188.71794871795,4188.20512820513,4203.076923076925,4211.794871794873,4201.0256410256425,4197.94871794872,0.0,2047.0,2048.0,0.0,0.0,0.0,4.0,0.0,0.0,0.0,4.0,4.0,4.0,4.0,0.0,4.0,4.0,4.0,4.0,4.0,4.0
18.0,0.0,4208.20512820513,4910.769230769232,4134.3589743589755,4200.000000000002,4236.923076923078,4183.589743589745,4179.487179487181,4208.71794871795,4196.410256410258,4185.128205128207,4208.71794871795,4210.769230769232,4204.615384615386,4197.435897435899,0.0,2047.0,2048.0,0.0,0.0,0.0,4.0,0.0,0.0,0.0,4.0,4.0,4.0,4.0,0.0,4.0,4.0,4.0,4.0,4.0,4.0
19.0,0.0,4212.8205128205145,4904.102564102565,4289.23076923077,4201.538461538463,4296.923076923078,4186.666666666668,4234.871794871797,4191.282051282053,4188.71794871795,4184.102564102565,4203.076923076925,4210.256410256412,4198.46153846154,4185.641025641027,0.0,2047.0,2048.0,0.0,0.0,0.0,4.0,0.0,0.0,0.0,4.0,4.0,4.0,4.0,0.0,4.0,4.0,4.0,4.0,4.0,4.0
20.0,0.0,4195.897435897437,4886.153846153848,4310.256410256412,4196.410256410258,4299.487179487181,4196.923076923078,4241.0256410256425,4177.435897435899,4172.8205128205145,4192.8205128205145,4178.46153846154,4205.641025641027,4177.94871794872,4172.307692307694,0.0,2047.0,2048.0,0.0,0.0,0.0,4.0,0.0,0.0,0.0,4.0,4.0,4.0,4.0,0.0,4.0,4.0,4.0,4.0,4.0,4.0
21.0,0.0,4195.384615384617,4879.487179487181,4134.871794871797,4198.46153846154,4215.384615384617,4198.46153846154,4176.923076923078,4189.743589743592,4180.000000000002,4194.3589743589755,4194.3589743589755,4208.20512820513,4193.846153846155,4189.23076923077,0.0,2047.0,2048.0,0.0,0.0,0.0,4.0,0.0,0.0,0.0,4.0,4.0,4.0,4.0,0.0,4.0,4.0,4.0,4.0,4.0,4.0
22.0,0.0,4209.23076923077,4883.589743589745,3982.0512820512836,4202.564102564104,4170.256410256412,4190.256410256412,4115.384615384617,4203.076923076925,4190.256410256412,4184.615384615386,4225.128205128207,4219.487179487181,4222.564102564104,4211.282051282053,0.0,2047.0,2048.0,0.0,0.0,0.0,4.0,0.0,0.0,0.0,4.0,4.0,4.0,4.0,0.0,4.0,4.0,4.0,4.0,4.0,4.0
23.0,0.0,4200.000000000002,4876.923076923078,4093.333333333335,4197.94871794872,4237.435897435899,4190.256410256412,4165.128205128207,4193.846153846155,4181.538461538463,4181.538461538463,4208.71794871795,4210.256410256412,4206.666666666668,4195.897435897437,0.0,2047.0,2048.0,0.0,0.0,0.0,4.0,0.0,0.0,0.0,4.0,4.0,4.0,4.0,0.0,4.0,4.0,4.0,4.0,4.0,4.0
24.0,0.0,4194.871794871797,4873.333333333335,4346.153846153848,4196.923076923078,4317.94871794872,4202.564102564104,4270.769230769232,4184.102564102565,4175.384615384617,4186.666666666668,4190.256410256412,4206.153846153848,4190.769230769232,4185.641025641027,0.0,2047.0,2048.0,0.0,0.0,0.0,4.0,0.0,0.0,0.0,4.0,4.0,4.0,4.0,0.0,4.0,4.0,4.0,4.0,4.0,4.0
25.0,0.0,4203.589743589745,4875.384615384617,4359.487179487181,4199.487179487181,4292.307692307694,4202.051282051283,4258.46153846154,4194.871794871797,4183.589743589745,4188.20512820513,4208.71794871795,4211.794871794873,4205.641025641027,4199.487179487181,0.0,2047.0,2048.0,0.0,0.0,0.0,4.0,0.0,0.0,0.0,4.0,4.0,4.0,4.0,0.0,4.0,4.0,4.0,4.0,4.0,4.0
26.0,0.0,4198.97435897436,4870.256410256412,4133.846153846155,4198.46153846154,4214.871794871797,4188.20512820513,4156.923076923078,4202.051282051283,4188.71794871795,4183.589743589745,4215.897435897437,4209.23076923077,4207.179487179489,4200.512820512822,0.0,2047.0,2048.0,0.0,0.0,0.0,4.0,0.0,0.0,0.0,4.0,4.0,4.0,4.0,0.0,4.0,4.0,4.0,4.0,4.0,4.0
27.0,0.0,4190.769230769232,4860.000000000002,4068.2051282051298,4197.94871794872,4216.410256410258,4189.743589743592,4150.769230769232,4186.153846153848,4178.97435897436,4188.20512820513,4202.564102564104,4208.71794871795,4194.871794871797,4187.692307692309,0.0,2047.0,2048.0,0.0,0.0,0.0,4.0,0.0,0.0,0.0,4.0,4.0,4.0,4.0,0.0,4.0,4.0,4.0,4.0,4.0,4.0
28.0,0.0,4188.20512820513,4854.871794871797,4218.97435897436,4196.410256410258,4276.410256410258,4200.512820512822,4219.487179487181,4175.897435897437,4166.153846153848,4197.435897435899,4192.8205128205145,4204.102564102565,4196.923076923078,4182.051282051283,0.0,2047.0,2048.0,0.0,0.0,0.0,4.0,0.0,0.0,0.0,4.0,4.0,4.0,4.0,0.0,4.0,4.0,4.0,4.0,4.0,4.0
29.0,0.0,4190.256410256412,4856.923076923078,4287.179487179489,4197.94871794872,4282.051282051283,4203.076923076925,4227.692307692309,4183.589743589745,4172.8205128205145,4194.3589743589755,4195.384615384617,4206.666666666668,4202.051282051283,4183.589743589745,0.0,2047.0,2048.0,0.0,0.0,0.0,4.0,0.0,0.0,0.0,4.0,4.0,4.0,4.0,0.0,4.0,4.0,4.0,4.0,4.0,4.0
30.0,0.0,4203.589743589745,4861.538461538463,4161.538461538463,4204.102564102565,4225.128205128207,4196.410256410258,4163.076923076925,4187.179487179489,4185.128205128207,4184.615384615386,4209.23076923077,4212.307692307694,4204.102564102565,4185.641025641027,0.0,2047.0,2048.0,0.0,0.0,0.0,4.0,0.0,0.0,0.0,4.0,4.0,4.0,4.0,0.0,4.0,4.0,4.0,4.0,4.0,4.0
31.0,0.0,4205.641025641027,4863.589743589745,4055.384615384617,4202.051282051283,4203.589743589745,4198.46153846154,4135.897435897437,4194.3589743589755,4185.128205128207,4185.641025641027,4215.897435897437,4209.743589743592,4204.615384615386,4187.179487179489,0.0,2047.0,2048.0,0.0,0.0,0.0,4.0,0.0,0.0,0.0,4.0,4.0,4.0,4.0,0.0,4.0,4.0,4.0,4.0,4.0,4.0
32.0,0.0,4193.333333333335,4859.487179487181,4166.666666666668,4196.923076923078,4255.384615384617,4205.128205128207,4202.564102564104,4210.256410256412,4190.769230769232,4188.71794871795,4209.743589743592,4216.410256410258,4202.051282051283,4189.743589743592,0.0,2047.0,2048.0,0.0,0.0,0.0,4.0,0.0,0.0,0.0,4.0,4.0,4.0,4.0,0.0,4.0,4.0,4.0,4.0,4.0,4.0
33.0,0.0,4186.153846153848,4852.307692307694,4315.897435897437,4196.410256410258,4298.46153846154,4202.051282051283,4260.000000000002,4198.46153846154,4187.692307692309,4186.153846153848,4200.512820512822,4213.846153846155,4189.743589743592,4184.102564102565,0.0,2047.0,2048.0,0.0,0.0,0.0,4.0,0.0,0.0,0.0,4.0,4.0,4.0,4.0,0.0,4.0,4.0,4.0,4.0,4.0,4.0
34.0,0.0,4184.102564102565,4845.641025641027,4262.051282051283,4190.256410256412,4269.23076923077,4197.435897435899,4226.153846153848,4179.487179487181,4169.23076923077,4186.153846153848,4195.384615384617,4207.692307692309,4178.97435897436,4180.512820512822,0.0,2047.0,2048.0,0.0,0.0,0.0,4.0,0.0,0.0,0.0,4.0,4.0,4.0,4.0,0.0,4.0,4.0,4.0,4.0,4.0,4.0
35.0,0.0,4178.46153846154,4841.0256410256425,4095.384615384617,4185.128205128207,4210.769230769232,4198.46153846154,4156.410256410258,4190.256410256412,4176.410256410258,4187.692307692309,4200.000000000002,4210.769230769232,4190.769230769232,4184.615384615386,0.0,2047.0,2048.0,0.0,0.0,0.0,4.0,0.0,0.0,0.0,4.0,4.0,4.0,4.0,0.0,4.0,4.0,4.0,4.0,4.0,4.0
36.0,0.0,4178.46153846154,4836.410256410258,4071.7948717948734,4186.153846153848,4215.897435897437,4197.94871794872,4151.794871794873,4194.871794871797,4189.23076923077,4186.666666666668,4202.564102564104,4210.769230769232,4202.564102564104,4185.128205128207,0.0,2047.0,2048.0,0.0,0.0,0.0,4.0,0.0,0.0,0.0,4.0,4.0,4.0,4.0,0.0,4.0,4.0,4.0,4.0,4.0,4.0
37.0,0.0,4189.743589743592,4833.846153846155,4198.46153846154,4186.666666666668,4264.615384615386,4195.897435897437,4202.564102564104,4181.538461538463,4175.384615384617,4187.179487179489,4200.000000000002,4213.333333333335,4197.94871794872,4185.128205128207,0.0,2047.0,2048.0,0.0,0.0,0.0,4.0,0.0,0.0,0.0,4.0,4.0,4.0,4.0,0.0,4.0,4.0,4.0,4.0,4.0,4.0
38.0,0.0,4195.897435897437,4843.589743589745,4237.94871794872,4191.282051282053,4263.589743589745,4196.410256410258,4211.282051282053,4183.076923076925,4173.333333333335,4184.615384615386,4207.179487179489,4212.307692307694,4194.3589743589755,4189.23076923077,0.0,2047.0,2048.0,0.0,0.0,0.0,4.0,0.0,0.0,0.0,4.0,4.0,4.0,4.0,0.0,4.0,4.0,4.0,4.0,4.0,4.0
39.0,0.0,4191.282051282053,4848.71794871795,4172.8205128205145,4194.3589743589755,4241.0256410256425,4200.512820512822,4183.076923076925,4191.282051282053,4189.23076923077,4184.615384615386,4213.846153846155,4212.307692307694,4190.769230769232,4182.564102564104,0.0,2047.0,2048.0,0.0,0.0,0.0,4.0,0.0,0.0,0.0,4.0,4.0,4.0,4.0,0.0,4.0,4.0,4.0,4.0,4.0,4.0
40.0,0.0,4184.615384615386,4829.743589743591,4181.0256410256425,4187.179487179489,4255.897435897437,4203.589743589745,4205.128205128207,4190.256410256412,4185.641025641027,4187.692307692309,4206.153846153848,4210.256410256412,4184.102564102565,4172.307692307694,0.0,2047.0,2048.0,0.0,0.0,0.0,4.0,0.0,0.0,0.0,4.0,4.0,4.0,4.0,0.0,4.0,4.0,4.0,4.0,4.0,4.0
41.0,0.0,4176.923076923078,4805.128205128207,4232.8205128205145,4181.0256410256425,4270.256410256412,4195.384615384617,4234.3589743589755,4187.179487179489,4175.384615384617,4187.179487179489,4197.94871794872,4201.538461538463,4182.564102564104,4168.20512820513,0.0,2047.0,2048.0,0.0,0.0,0.0,4.0,0.0,0.0,0.0,4.0,4.0,4.0,4.0,0.0,4.0,4.0,4.0,4.0,4.0,4.0
42.0,0.0,4170.256410256412,4799.487179487181,4155.897435897437,4183.076923076925,4237.435897435899,4184.615384615386,4175.384615384617,4184.102564102565,4174.871794871797,4184.615384615386,4189.23076923077,4202.564102564104,4171.282051282053,4160.512820512822,0.0,2047.0,2048.0,0.0,0.0,0.0,4.0,0.0,0.0,0.0,4.0,4.0,4.0,4.0,0.0,4.0,4.0,4.0,4.0,4.0,4.0
43.0,0.0,4168.20512820513,4803.076923076925,4037.9487179487196,4182.564102564104,4203.589743589745,4189.23076923077,4118.46153846154,4181.0256410256425,4177.435897435899,4186.153846153848,4188.71794871795,4203.076923076925,4166.153846153848,4160.000000000002,0.0,2047.0,2048.0,0.0,0.0,0.0,4.0,0.0,0.0,0.0,4.0,4.0,4.0,4.0,0.0,4.0,4.0,4.0,4.0,4.0,4.0
44.0,0.0,4178.46153846154,4805.128205128207,4114.871794871797,4185.641025641027,4239.487179487181,4193.846153846155,4164.102564102565,4182.051282051283,4181.538461538463,4187.692307692309,4205.128205128207,4205.641025641027,4194.871794871797,4177.435897435899,0.0,2047.0,2048.0,0.0,0.0,0.0,4.0,0.0,0.0,0.0,4.0,4.0,4.0,4.0,0.0,4.0,4.0,4.0,4.0,4.0,4.0
45.0,0.0,4187.692307692309,4809.23076923077,4283.076923076925,4192.307692307694,4290.769230769232,4184.102564102565,4226.666666666668,4184.615384615386,4186.153846153848,4187.179487179489,4214.3589743589755,4210.769230769232,4212.307692307694,4187.179487179489,0.0,2047.0,2048.0,0.0,0.0,0.0,4.0,0.0,0.0,0.0,4.0,4.0,4.0,4.0,0.0,4.0,4.0,4.0,4.0,4.0,4.0
46.0,0.0,4177.94871794872,4802.564102564104,4264.102564102565,4186.666666666668,4271.282051282053,4185.128205128207,4214.3589743589755,4188.20512820513,4187.692307692309,4186.153846153848,4195.897435897437,4201.0256410256425,4188.20512820513,4163.589743589745,0.0,2047.0,2048.0,0.0,0.0,0.0,4.0,0.0,0.0,0.0,4.0,4.0,4.0,4.0,0.0,4.0,4.0,4.0,4.0,4.0,4.0
47.0,0.0,4168.71794871795,4788.20512820513,4102.051282051283,4180.512820512822,4220.000000000002,4202.564102564104,4160.512820512822,4187.179487179489,4184.102564102565,4184.615384615386,4182.051282051283,4201.538461538463,4173.333333333335,4150.256410256412,0.0,2047.0,2048.0,0.0,0.0,0.0,4.0,0.0,0.0,0.0,4.0,4.0,4.0,4.0,0.0,4.0,4.0,4.0,4.0,4.0,4.0
48.0,0.0,4169.743589743592,4787.179487179488,4043.589743589745,4183.076923076925,4210.256410256412,4204.102564102565,4138.97435897436,4181.0256410256425,4175.384615384617,4189.23076923077,4191.794871794873,4207.179487179489,4189.23076923077,4169.23076923077,0.0,2047.0,2048.0,0.0,0.0,0.0,4.0,0.0,0.0,0.0,4.0,4.0,4.0,4.0,0.0,4.0,4.0,4.0,4.0,4.0,4.0
49.0,0.0,4165.128205128207,4789.743589743591,4142.051282051283,4178.46153846154,4247.692307692309,4191.282051282053,4171.282051282053,4175.384615384617,4170.256410256412,4192.8205128205145,4195.897435897437,4203.589743589745,4188.71794871795,4170.256410256412,0.0,2047.0,2048.0,0.0,0.0,0.0,4.0,0.0,0.0,0.0,4.0,4.0,4.0,4.0,0.0,4.0,4.0,4.0,4.0,4.0,4.0
50.0,0.0,4163.589743589745,4785.641025641027,4243.589743589745,4172.307692307694,4275.384615384617,4183.076923076925,4210.256410256412,4171.282051282053,4169.743589743592,4187.179487179489,4184.615384615386,4200.512820512822,4171.282051282053,4152.307692307694,0.0,2047.0,2048.0,0.0,0.0,0.0,4.0,0.0,0.0,0.0,4.0,4.0,4.0,4.0,0.0,4.0,4.0,4.0,4.0,4.0,4.0
51.0,0.0,4168.71794871795,4779.487179487181,4232.8205128205145,4176.923076923078,4266.666666666668,4182.564102564104,4211.794871794873,4170.256410256412,4167.179487179489,4182.564102564104,4177.94871794872,4198.46153846154,4175.384615384617,4155.384615384617,0.0,2047.0,2048.0,0.0,0.0,0.0,4.0,0.0,0.0,0.0,4.0,4.0,4.0,4.0,0.0,4.0,4.0,4.0,4.0,4.0,4.0
52.0,0.0,4167.179487179489,4773.846153846155,4167.179487179489,4178.46153846154,4247.179487179489,4184.615384615386,4189.23076923077,4172.8205128205145,4172.8205128205145,4186.666666666668,4187.692307692309,4202.051282051283,4190.769230769232,4169.23076923077,0.0,2047.0,2048.0,0.0,0.0,0.0,4.0,0.0,0.0,0.0,4.0,4.0,4.0,4.0,0.0,4.0,4.0,4.0,4.0,4.0,4.0
53.0,0.0,4158.97435897436,4764.615384615386,4112.307692307694,4168.20512820513,4231.282051282053,4182.564102564104,4155.897435897437,4167.692307692309,4177.94871794872,4188.20512820513,4196.923076923078,4198.46153846154,4192.8205128205145,4162.564102564104,0.0,2047.0,2048.0,0.0,0.0,0.0,4.0,0.0,0.0,0.0,4.0,4.0,4.0,4.0,0.0,4.0,4.0,4.0,4.0,4.0,4.0
54.0,0.0,4158.46153846154,4766.153846153848,4069.743589743591,4168.71794871795,4221.0256410256425,4181.538461538463,4121.538461538463,4164.615384615386,4174.871794871797,4183.076923076925,4194.3589743589755,4196.410256410258,4188.20512820513,4153.846153846155,0.0,2047.0,2048.0,0.0,0.0,0.0,4.0,0.0,0.0,0.0,4.0,4.0,4.0,4.0,0.0,4.0,4.0,4.0,4.0,4.0,4.0
55.0,0.0,4165.128205128207,4773.846153846155,4100.000000000002,4180.000000000002,4234.3589743589755,4184.102564102565,4140.512820512822,4181.0256410256425,4178.46153846154,4186.666666666668,4191.282051282053,4205.641025641027,4184.615384615386,4158.46153846154,0.0,2047.0,2048.0,0.0,0.0,0.0,4.0,0.0,0.0,0.0,4.0,4.0,4.0,4.0,0.0,4.0,4.0,4.0,4.0,4.0,4.0
56.0,0.0,4162.564102564104,4767.179487179488,4225.128205128207,4179.487179487181,4272.8205128205145,4183.589743589745,4215.897435897437,4184.615384615386,4181.0256410256425,4193.333333333335,4186.153846153848,4200.000000000002,4173.333333333335,4153.846153846155,0.0,2047.0,2048.0,0.0,0.0,0.0,4.0,0.0,0.0,0.0,4.0,4.0,4.0,4.0,0.0,4.0,4.0,4.0,4.0,4.0,4.0
57.0,0.0,4162.564102564104,4763.076923076925,4295.384615384617,4176.923076923078,4286.666666666668,4186.153846153848,4240.000000000002,4168.20512820513,4170.256410256412,4190.769230769232,4183.076923076925,4200.000000000002,4165.128205128207,4149.23076923077,0.0,2047.0,2048.0,0.0,0.0,0.0,4.0,0.0,0.0,0.0,4.0,4.0,4.0,4.0,0.0,4.0,4.0,4.0,4.0,4.0,4.0
58.0,0.0,4172.8205128205145,4773.846153846155,4184.615384615386,4183.589743589745,4239.487179487181,4188.20512820513,4176.923076923078,4171.282051282053,4165.128205128207,4185.641025641027,4191.794871794873,4208.20512820513,4176.410256410258,4161.538461538463,0.0,2047.0,2048.0,0.0,0.0,0.0,4.0,0.0,0.0,0.0,4.0,4.0,4.0,4.0,0.0,4.0,4.0,4.0,4.0,4.0,4.0
59.0,0.0,4183.076923076925,4779.487179487181,4046.6666666666683,4188.20512820513,4197.94871794872,4186.666666666668,4127.179487179489,4186.666666666668,4179.487179487181,4187.692307692309,4203.076923076925,4208.71794871795,4188.71794871795,4171.794871794873,0.0,2047.0,2048.0,0.0,0.0,0.0,4.0,0.0,0.0,0.0,4.0,4.0,4.0,4.0,0.0,4.0,4.0,4.0,4.0,4.0,4.0
60.0,0.0,4183.076923076925,4770.769230769232,4095.8974358974374,4187.692307692309,4226.153846153848,4192.8205128205145,4160.512820512822,4183.589743589745,4184.615384615386,4188.71794871795,4200.512820512822,4209.743589743592,4186.153846153848,4164.102564102565,0.0,2047.0,2048.0,0.0,0.0,0.0,4.0,0.0,0.0,0.0,4.0,4.0,4.0,4.0,0.0,4.0,4.0,4.0,4.0,4.0,4.0
61.0,0.0,4172.8205128205145,4765.128205128207,4240.512820512822,4186.153846153848,4274.3589743589755,4197.94871794872,4223.589743589745,4180.512820512822,4172.8205128205145,4185.128205128207,4190.256410256412,4204.102564102565,4181.538461538463,4154.3589743589755,0.0,2047.0,2048.0,0.0,0.0,0.0,4.0,0.0,0.0,0.0,4.0,4.0,4.0,4.0,0.0,4.0,4.0,4.0,4.0,4.0,4.0
62.0,0.0,4173.333333333335,4766.666666666668,4266.153846153848,4186.153846153848,4272.8205128205145,4192.8205128205145,4230.256410256412,4183.589743589745,4171.282051282053,4185.641025641027,4191.794871794873,4204.102564102565,4182.051282051283,4160.000000000002,0.0,2047.0,2048.0,0.0,0.0,0.0,4.0,0.0,0.0,0.0,4.0,4.0,4.0,4.0,0.0,4.0,4.0,4.0,4.0,4.0,4.0
63.0,0.0,4183.076923076925,4768.71794871795,4145.641025641027,4189.743589743592,4228.71794871795,4194.871794871797,4171.282051282053,4185.128205128207,4184.615384615386,4187.179487179489,4202.564102564104,4211.794871794873,4186.666666666668,4170.256410256412,0.0,2047.0,2048.0,0.0,0.0,0.0,4.0,0.0,0.0,0.0,4.0,4.0,4.0,4.0,0.0,4.0,4.0,4.0,4.0,4.0,4.0
64.0,0.0,4181.0256410256425,4766.153846153848,4025.1282051282064,4186.666666666668,4197.435897435899,4197.94871794872,4119.487179487181,4195.897435897437,4190.769230769232,4184.102564102565,4205.641025641027,4212.307692307694,4190.769230769232,4168.71794871795,694.0,2047.0,2048.0,0.0,0.0,0.0,4.0,4.0,0.0,0.0,4.0,4.0,4.0,4.0,0.0,4.0,4.0,4.0,4.0,4.0,4.0
65.0,0.0,4167.692307692309,4757.435897435899,4069.230769230771,4170.769230769232,4225.128205128207,4190.769230769232,4151.794871794873,4194.3589743589755,4178.97435897436,4186.666666666668,4187.179487179489,4206.153846153848,4174.3589743589755,4157.435897435899,828.0,2047.0,2048.0,0.0,0.0,0.0,4.0,4.0,4.0,0.0,4.0,4.0,4.0,4.0,0.0,4.0,4.0,4.0,4.0,4.0,4.0
66.0,0.0,4156.923076923078,4743.589743589745,4265.128205128207,4164.615384615386,4288.71794871795,4195.384615384617,4247.692307692309,4180.512820512822,4175.384615384617,4189.743589743592,4169.743589743592,4193.846153846155,4154.871794871797,4142.564102564104,806.0,2047.0,2048.0,0.0,0.0,4.0,4.0,4.0,4.0,0.0,4.0,4.0,4.0,4.0,0.0,4.0,4.0,4.0,4.0,4.0,4.0
67.0,0.0,4158.97435897436,4732.307692307694,4350.769230769232,4169.23076923077,4303.076923076925,4207.179487179489,4280.512820512822,4185.128205128207,4187.179487179489,4188.20512820513,4174.3589743589755,4200.512820512822,4160.000000000002,4139.487179487181,785.0,2047.0,2048.0,0.0,0.0,4.0,4.0,4.0,4.0,0.0,4.0,4.0,4.0,4.0,0.0,4.0,4.0,4.0,4.0,4.0,4.0
68.0,0.0,4156.410256410258,4725.128205128207,4141.0256410256425,4167.692307692309,4223.076923076925,4201.538461538463,4186.666666666668,4190.256410256412,4186.153846153848,4184.615384615386,4174.3589743589755,4205.641025641027,4159.487179487181,4142.564102564104,0.0,2047.0,2048.0,0.0,0.0,4.0,4.0,4.0,4.0,0.0,4.0,4.0,4.0,4.0,0.0,4.0,4.0,4.0,4.0,4.0,4.0
69.0,0.0,4162.051282051283,4731.794871794873,3931.2820512820526,4171.794871794873,4160.512820512822,4195.384615384617,4091.2820512820526,4182.564102564104,4177.435897435899,4185.641025641027,4175.384615384617,4197.435897435899,4160.512820512822,4145.128205128207,785.0,2047.0,2048.0,0.0,0.0,4.0,4.0,4.0,4.0,0.0,4.0,4.0,4.0,4.0,0.0,4.0,4.0,4.0,4.0,4.0,4.0
70.0,0.0,4192.8205128205145,4749.23076923077,4059.487179487181,4190.256410256412,4216.923076923078,4204.102564102565,4136.410256410258,4188.71794871795,4188.20512820513,4187.692307692309,4204.615384615386,4211.794871794873,4197.435897435899,4168.71794871795,806.0,2047.0,2048.0,0.0,0.0,4.0,4.0,4.0,4.0,0.0,4.0,4.0,4.0,4.0,0.0,4.0,4.0,4.0,4.0,4.0,4.0
71.0,0.0,4201.0256410256425,4751.282051282053,4323.589743589745,4198.97435897436,4302.051282051283,4213.846153846155,4255.384615384617,4203.076923076925,4202.564102564104,4186.153846153848,4219.487179487181,4216.923076923078,4218.97435897436,4185.128205128207,819.0,2047.0,2048.0,0.0,0.0,4.0,4.0,4.0,4.0,0.0,4.0,4.0,4.0,4.0,0.0,4.0,4.0,4.0,4.0,4.0,4.0
72.0,0.0,4184.102564102565,4745.128205128207,4364.102564102565,4198.46153846154,4302.051282051283,4215.384615384617,4282.051282051283,4201.538461538463,4197.435897435899,4185.641025641027,4209.743589743592,4210.256410256412,4200.512820512822,4176.410256410258,614.0,2047.0,2048.0,0.0,0.0,4.0,4.0,4.0,4.0,0.0,4.0,4.0,4.0,4.0,0.0,4.0,4.0,4.0,4.0,4.0,4.0
73.0,0.0,4185.128205128207,4745.641025641027,4168.20512820513,4200.512820512822,4228.71794871795,4215.897435897437,4199.487179487181,4198.97435897436,4191.794871794873,4186.666666666668,4212.307692307694,4214.3589743589755,4197.435897435899,4174.3589743589755,0.0,2047.0,2048.0,0.0,0.0,4.0,4.0,4.0,4.0,0.0,4.0,4.0,4.0,4.0,0.0,4.0,4.0,4.0,4.0,4.0,4.0
74.0,0.0,4193.333333333335,4746.666666666668,4022.0512820512836,4198.97435897436,4188.20512820513,4212.8205128205145,4133.846153846155,4201.0256410256425,4194.871794871797,4185.641025641027,4218.46153846154,4216.923076923078,4214.3589743589755,4182.051282051283,828.0,2047.0,2048.0,0.0,0.0,4.0,4.0,4.0,4.0,0.0,4.0,4.0,4.0,4.0,0.0,4.0,4.0,4.0,4.0,4.0,4.0
75.0,0.0,4194.3589743589755,4750.769230769232,4111.794871794873,4200.000000000002,4229.743589743592,4209.743589743592,4163.589743589745,4201.538461538463,4196.923076923078,4187.179487179489,4218.97435897436,4220.000000000002,4217.435897435899,4184.615384615386,798.0,2047.0,2048.0,0.0,0.0,4.0,4.0,4.0,4.0,0.0,4.0,4.0,4.0,4.0,0.0,4.0,4.0,4.0,4.0,4.0,4.0
76.0,0.0,4193.333333333335,4755.384615384617,4262.051282051283,4203.076923076925,4273.846153846155,4217.435897435899,4234.3589743589755,4203.589743589745,4194.3589743589755,4187.692307692309,4218.97435897436,4215.384615384617,4209.23076923077,4182.564102564104,798.0,2047.0,2048.0,0.0,0.0,4.0,4.0,4.0,4.0,0.0,4.0,4.0,4.0,4.0,0.0,4.0,4.0,4.0,4.0,4.0,4.0
77.0,0.0,4190.256410256412,4750.769230769232,4278.46153846154,4201.0256410256425,4272.8205128205145,4218.46153846154,4246.666666666668,4200.000000000002,4185.641025641027,4186.153846153848,4206.666666666668,4210.769230769232,4197.435897435899,4176.410256410258,406.0,2047.0,2048.0,0.0,0.0,4.0,4.0,4.0,4.0,0.0,4.0,4.0,4.0,4.0,0.0,4.0,4.0,4.0,4.0,4.0,4.0
78.0,0.0,4193.846153846155,4743.076923076925,4217.435897435899,4198.97435897436,4253.333333333335,4205.128205128207,4202.051282051283,4189.23076923077,4180.000000000002,4186.666666666668,4198.97435897436,4210.256410256412,4196.923076923078,4170.256410256412,828.0,2047.0,2048.0,0.0,0.0,4.0,4.0,4.0,4.0,0.0,4.0,4.0,4.0,4.0,0.0,4.0,4.0,4.0,4.0,4.0,4.0
79.0,0.0,4205.641025641027,4743.076923076925,4173.846153846155,4201.0256410256425,4235.897435897437,4203.589743589745,4178.97435897436,4185.641025641027,4185.128205128207,4186.666666666668,4213.333333333335,4209.743589743592,4218.46153846154,4186.153846153848,798.0,2047.0,2048.0,0.0,0.0,4.0,4.0,4.0,4.0,0.0,4.0,4.0,4.0,4.0,0.0,4.0,4.0,4.0,4.0,4.0,4.0
80.0,0.0,4215.384615384617,4746.153846153848,4124.615384615386,4205.128205128207,4221.538461538463,4216.923076923078,4167.179487179489,4187.179487179489,4189.23076923077,4186.153846153848,4221.538461538463,4218.46153846154,4228.71794871795,4201.538461538463,798.0,2047.0,2048.0,0.0,0.0,4.0,4.0,4.0,4.0,0.0,4.0,4.0,4.0,4.0,0.0,4.0,4.0,4.0,4.0,4.0,4.0
81.0,0.0,4225.641025641027,4754.871794871797,4086.6666666666683,4212.307692307694,4213.333333333335,4213.333333333335,4145.641025641027,4188.71794871795,4184.102564102565,4190.256410256412,4221.538461538463,4215.897435897437,4219.487179487181,4198.46153846154,406.0,2047.0,2048.0,0.0,0.0,4.0,4.0,4.0,4.0,0.0,4.0,4.0,4.0,4.0,0.0,4.0,4.0,4.0,4.0,4.0,4.0
82.0,0.0,4241.538461538463,4767.179487179488,4182.564102564104,4216.410256410258,4249.23076923077,4201.0256410256425,4178.97435897436,4187.692307692309,4176.923076923078,4190.769230769232,4223.589743589745,4214.3589743589755,4214.3589743589755,4204.615384615386,828.0,2047.0,2048.0,0.0,0.0,4.0,4.0,4.0,4.0,0.0,4.0,4.0,4.0,4.0,0.0,4.0,4.0,4.0,4.0,4.0,4.0
83.0,0.0,4254.871794871797,4765.128205128207,4341.538461538463,4208.71794871795,4297.94871794872,4201.538461538463,4240.512820512822,4178.46153846154,4174.871794871797,4186.153846153848,4215.897435897437,4218.46153846154,4216.410256410258,4220.000000000002,798.0,2047.0,2048.0,0.0,0.0,4.0,4.0,4.0,4.0,0.0,4.0,4.0,4.0,4.0,0.0,4.0,4.0,4.0,4.0,4.0,4.0
84.0,0.0,4268.71794871795,4763.589743589745,4324.615384615386,4210.769230769232,4273.333333333335,4197.94871794872,4220.512820512822,4172.8205128205145,4180.000000000002,4185.641025641027,4210.769230769232,4211.794871794873,4224.615384615386,4228.71794871795,798.0,2047.0,2048.0,0.0,0.0,4.0,4.0,4.0,4.0,0.0,4.0,4.0,4.0,4.0,0.0,4.0,4.0,4.0,4.0,4.0,4.0
85.0,0.0,4289.23076923077,4775.384615384617,4144.615384615386,4226.153846153848,4206.666666666668,4189.743589743592,4129.743589743592,4180.512820512822,4182.051282051283,4187.692307692309,4220.512820512822,4218.46153846154,4233.333333333335,4238.97435897436,406.0,2047.0,2048.0,0.0,0.0,4.0,4.0,4.0,4.0,0.0,4.0,4.0,4.0,4.0,0.0,4.0,4.0,4.0,4.0,4.0,4.0
86.0,0.0,4292.307692307694,4771.282051282053,4056.4102564102577,4224.102564102565,4191.794871794873,4192.8205128205145,4105.641025641027,4186.153846153848,4178.46153846154,4185.641025641027,4220.512820512822,4219.487179487181,4230.256410256412,4242.564102564104,828.0,2047.0,2048.0,0.0,0.0,4.0,4.0,4.0,4.0,0.0,4.0,4.0,4.0,4.0,0.0,4.0,4.0,4.0,4.0,4.0,4.0
87.0,0.0,4285.641025641027,4761.538461538463,4194.871794871797,4213.333333333335,4249.743589743592,4197.94871794872,4184.615384615386,4183.589743589745,4176.923076923078,4183.076923076925,4213.846153846155,4214.3589743589755,4227.692307692309,4237.435897435899,798.0,2047.0,2048.0,0.0,0.0,4.0,4.0,4.0,4.0,0.0,4.0,4.0,4.0,4.0,0.0,4.0,4.0,4.0,4.0,4.0,4.0
88.0,0.0,4293.333333333335,4771.282051282053,4364.615384615386,4223.076923076925,4294.871794871797,4201.538461538463,4247.692307692309,4183.076923076925,4179.487179487181,4191.282051282053,4225.641025641027,4221.538461538463,4236.923076923078,4246.666666666668,798.0,2047.0,2048.0,0.0,0.0,4.0,4.0,4.0,4.0,0.0,4.0,4.0,4.0,4.0,0.0,4.0,4.0,4.0,4.0,4.0,4.0
89.0,0.0,4304.615384615386,4774.871794871797,4317.94871794872,4233.333333333335,4264.615384615386,4207.179487179489,4214.871794871797,4183.076923076925,4178.97435897436,4192.8205128205145,4231.794871794873,4217.435897435899,4236.923076923078,4251.794871794873,406.0,2047.0,2048.0,0.0,0.0,4.0,4.0,4.0,4.0,0.0,4.0,4.0,4.0,4.0,0.0,4.0,4.0,4.0,4.0,4.0,4.0
90.0,0.0,4306.153846153848,4766.666666666668,4162.564102564104,4230.769230769232,4216.410256410258,4207.179487179489,4150.769230769232,4184.615384615386,4176.410256410258,4186.666666666668,4221.0256410256425,4217.435897435899,4233.846153846155,4236.410256410258,828.0,2047.0,2048.0,0.0,0.0,4.0,4.0,4.0,4.0,0.0,4.0,4.0,4.0,4.0,0.0,4.0,4.0,4.0,4.0,4.0,4.0
91.0,0.0,4293.846153846155,4768.71794871795,4120.000000000002,4229.23076923077,4208.71794871795,4201.538461538463,4140.512820512822,4198.46153846154,4190.256410256412,4190.769230769232,4224.615384615386,4222.051282051283,4251.794871794873,4232.307692307694,798.0,2047.0,2048.0,0.0,0.0,4.0,4.0,4.0,4.0,0.0,4.0,4.0,4.0,4.0,0.0,4.0,4.0,4.0,4.0,4.0,4.0
92.0,0.0,4278.46153846154,4764.102564102565,4190.256410256412,4224.615384615386,4238.46153846154,4202.051282051283,4185.128205128207,4206.153846153848,4201.0256410256425,4196.410256410258,4233.333333333335,4221.0256410256425,4258.46153846154,4238.46153846154,798.0,2047.0,2048.0,0.0,0.0,4.0,4.0,4.0,4.0,0.0,4.0,4.0,4.0,4.0,0.0,4.0,4.0,4.0,4.0,4.0,4.0
93.0,0.0,4269.23076923077,4749.23076923077,4283.589743589745,4215.384615384617,4269.23076923077,4204.615384615386,4233.846153846155,4193.846153846155,4187.692307692309,4187.179487179489,4218.97435897436,4220.512820512822,4231.282051282053,4228.71794871795,406.0,2047.0,2048.0,0.0,0.0,4.0,4.0,4.0,4.0,0.0,4.0,4.0,4.0,4.0,0.0,4.0,4.0,4.0,4.0,4.0,4.0
94.0,0.0,4252.307692307694,4743.076923076925,4316.410256410258,4211.794871794873,4273.333333333335,4200.000000000002,4239.487179487181,4183.589743589745,4178.97435897436,4181.0256410256425,4210.256410256412,4212.307692307694,4213.846153846155,4203.076923076925,828.0,2047.0,2048.0,0.0,0.0,4.0,4.0,4.0,4.0,0.0,4.0,4.0,4.0,4.0,0.0,4.0,4.0,4.0,4.0,4.0,4.0
95.0,0.0,4240.000000000002,4745.641025641027,4243.589743589745,4214.3589743589755,4246.666666666668,4200.512820512822,4203.589743589745,4192.8205128205145,4192.8205128205145,4189.23076923077,4225.128205128207,4215.384615384617,4233.333333333335,4195.384615384617,798.0,2047.0,2048.0,0.0,0.0,4.0,4.0,4.0,4.0,0.0,4.0,4.0,4.0,4.0,0.0,4.0,4.0,4.0,4.0,4.0,4.0
96.0,0.0,4248.20512820513,4749.743589743591,4125.641025641027,4226.153846153848,4207.179487179489,4209.23076923077,4159.487179487181,4212.8205128205145,4208.71794871795,4189.743589743592,4234.3589743589755,4223.076923076925,4252.307692307694,4224.102564102565,798.0,2047.0,2048.0,0.0,0.0,4.0,4.0,4.0,4.0,0.0,4.0,4.0,4.0,4.0,0.0,4.0,4.0,4.0,4.0,4.0,4.0
97.0,0.0,4250.769230769232,4746.666666666668,4110.769230769232,4231.794871794873,4209.743589743592,4216.923076923078,4155.897435897437,4220.512820512822,4206.666666666668,4185.641025641027,4226.666666666668,4220.000000000002,4231.282051282053,4242.051282051283,406.0,2047.0,2048.0,0.0,0.0,4.0,4.0,4.0,4.0,0.0,4.0,4.0,4.0,4.0,0.0,4.0,4.0,4.0,4.0,4.0,4.0
98.0,0.0,4233.846153846155,4732.307692307694,4234.3589743589755,4220.000000000002,4254.871794871797,4216.923076923078,4212.8205128205145,4208.71794871795,4196.410256410258,4186.153846153848,4221.0256410256425,4216.410256410258,4209.23076923077,4223.589743589745,828.0,2047.0,2048.0,0.0,0.0,4.0,4.0,4.0,4.0,0.0,4.0,4.0,4.0,4.0,0.0,4.0,4.0,4.0,4.0,4.0,4.0
99.0,0.0,4224.615384615386,4723.589743589745,4326.153846153848,4211.794871794873,4275.897435897437,4212.307692307694,4256.410256410258,4197.94871794872,4192.8205128205145,4186.666666666668,4225.641025641027,4211.794871794873,4227.179487179489,4224.102564102565,798.0,2047.0,2048.0,0.0,0.0,4.0,4.0,4.0,4.0,0.0,4.0,4.0,4.0,4.0,0.0,4.0,4.0,4.0,4.0,4.0,4.0
100.0,0.0,4223.589743589745,4727.692307692309,4266.666666666668,4213.846153846155,4250.256410256412,4212.307692307694,4223.076923076925,4198.46153846154,4198.46153846154,4186.153846153848,4227.179487179489,4217.94871794872,4237.435897435899,4240.512820512822,798.0,2047.0,2048.0,0.0,0.0,4.0,4.0,4.0,4.0,0.0,4.0,4.0,4.0,4.0,0.0,4.0,4.0,4.0,4.0,4.0,4.0
101.0,0.0,4204.102564102565,4720.512820512822,4141.538461538463,4207.179487179489,4217.435897435899,4211.282051282053,4166.153846153848,4202.564102564104,4200.000000000002,4185.641025641027,4216.410256410258,4218.46153846154,4211.794871794873,4214.871794871797,406.0,2047.0,2048.0,0.0,0.0,4.0,4.0,4.0,4.0,0.0,4.0,4.0,4.0,4.0,0.0,4.0,4.0,4.0,4.0,4.0,4.0
102.0,0.0,4189.23076923077,4710.769230769232,4118.46153846154,4200.000000000002,4221.0256410256425,4202.564102564104,4162.051282051283,4201.538461538463,4196.410256410258,4186.153846153848,4209.743589743592,4210.256410256412,4202.564102564104,4189.23076923077,828.0,2047.0,2048.0,0.0,0.0,4.0,4.0,4.0,4.0,0.0,4.0,4.0,4.0,4.0,0.0,4.0,4.0,4.0,4.0,4.0,4.0
103.0,0.0,4194.3589743589755,4714.3589743589755,4206.666666666668,4203.076923076925,4248.20512820513,4196.923076923078,4200.512820512822,4204.102564102565,4202.564102564104,4186.153846153848,4216.923076923078,4215.897435897437,4218.46153846154,4204.615384615386,798.0,2047.0,2048.0,0.0,0.0,4.0,4.0,4.0,4.0,0.0,4.0,4.0,4.0,4.0,0.0,4.0,4.0,4.0,4.0,4.0,4.0
104.0,0.0,4183.076923076925,4709.23076923077,4248.20512820513,4197.94871794872,4254.871794871797,4199.487179487181,4223.589743589745,4205.641025641027,4203.076923076925,4184.615384615386,4213.333333333335,4213.846153846155,4217.94871794872,4201.0256410256425,798.0,2047.0,2048.0,0.0,0.0,4.0,4.0,4.0,4.0,0.0,4.0,4.0,4.0,4.0,0.0,4.0,4.0,4.0,4.0,4.0,4.0
105.0,0.0,4172.8205128205145,4696.410256410258,4209.23076923077,4194.3589743589755,4247.179487179489,4203.076923076925,4207.179487179489,4194.871794871797,4186.666666666668,4184.615384615386,4200.512820512822,4209.23076923077,4209.743589743592,4182.564102564104,406.0,2047.0,2048.0,0.0,0.0,4.0,4.0,4.0,4.0,0.0,4.0,4.0,4.0,4.0,0.0,4.0,4.0,4.0,4.0,4.0,4.0
106.0,0.0,4186.666666666668,4695.384615384617,4171.794871794873,4199.487179487181,4237.94871794872,4199.487179487181,4183.589743589745,4192.307692307694,4182.564102564104,4185.641025641027,4201.538461538463,4209.23076923077,4213.846153846155,4189.23076923077,828.0,2047.0,2048.0,0.0,0.0,4.0,4.0,4.0,4.0,0.0,4.0,4.0,4.0,4.0,0.0,4.0,4.0,4.0,4.0,4.0,4.0
107.0,0.0,4188.20512820513,4698.97435897436,4171.794871794873,4200.000000000002,4236.923076923078,4198.46153846154,4183.076923076925,4203.076923076925,4193.846153846155,4186.153846153848,4205.641025641027,4208.20512820513,4217.435897435899,4194.871794871797,798.0,2047.0,2048.0,0.0,0.0,4.0,4.0,4.0,4.0,0.0,4.0,4.0,4.0,4.0,0.0,4.0,4.0,4.0,4.0,4.0,4.0
108.0,0.0,4173.846153846155,4697.94871794872,4183.589743589745,4202.051282051283,4241.0256410256425,4209.743589743592,4192.307692307694,4204.102564102565,4197.435897435899,4186.153846153848,4203.076923076925,4214.871794871797,4213.846153846155,4185.641025641027,798.0,2047.0,2048.0,0.0,0.0,4.0,4.0,4.0,4.0,0.0,4.0,4.0,4.0,4.0,0.0,4.0,4.0,4.0,4.0,4.0,4.0
109.0,0.0,4169.23076923077,4692.307692307694,4180.000000000002,4201.538461538463,4236.410256410258,4215.897435897437,4195.897435897437,4196.923076923078,4195.897435897437,4184.102564102565,4201.0256410256425,4210.769230769232,4211.282051282053,4183.076923076925,406.0,2047.0,2048.0,0.0,0.0,4.0,4.0,4.0,4.0,0.0,4.0,4.0,4.0,4.0,0.0,4.0,4.0,4.0,4.0,4.0,4.0
110.0,0.0,4172.307692307694,4686.153846153848,4188.20512820513,4189.23076923077,4242.051282051283,4208.20512820513,4199.487179487181,4202.564102564104,4203.076923076925,4183.589743589745,4201.0256410256425,4209.23076923077,4207.692307692309,4186.666666666668,828.0,2047.0,2048.0,0.0,0.0,4.0,4.0,4.0,4.0,0.0,4.0,4.0,4.0,4.0,0.0,4.0,4.0,4.0,4.0,4.0,4.0
111.0,0.0,4173.333333333335,4685.128205128207,4206.153846153848,4189.23076923077,4252.307692307694,4203.589743589745,4201.538461538463,4208.20512820513,4206.666666666668,4184.615384615386,4202.564102564104,4215.897435897437,4206.153846153848,4188.20512820513,798.0,2047.0,2048.0,0.0,0.0,4.0,4.0,4.0,4.0,0.0,4.0,4.0,4.0,4.0,0.0,4.0,4.0,4.0,4.0,4.0,4.0
112.0,0.0,4176.923076923078,4692.307692307694,4198.97435897436,4206.666666666668,4244.615384615386,4204.615384615386,4191.282051282053,4196.410256410258,4191.794871794873,4185.128205128207,4202.051282051283,4214.3589743589755,4203.589743589745,4185.641025641027,798.0,2047.0,2048.0,0.0,0.0,4.0,4.0,4.0,4.0,0.0,4.0,4.0,4.0,4.0,0.0,4.0,4.0,4.0,4.0,4.0,4.0
113.0,0.0,4175.897435897437,4687.692307692309,4168.20512820513,4200.512820512822,4233.333333333335,4203.076923076925,4179.487179487181,4191.282051282053,4182.051282051283,4186.153846153848,4190.256410256412,4211.282051282053,4190.256410256412,4178.97435897436,406.0,2047.0,2048.0,0.0,0.0,4.0,4.0,4.0,4.0,0.0,4.0,4.0,4.0,4.0,0.0,4.0,4.0,4.0,4.0,4.0,4.0
114.0,0.0,4160.512820512822,4667.692307692309,4152.8205128205145,4177.94871794872,4233.333333333335,4199.487179487181,4182.051282051283,4202.051282051283,4195.897435897437,4186.153846153848,4182.051282051283,4204.615384615386,4182.564102564104,4170.256410256412,828.0,2047.0,2048.0,0.0,0.0,4.0,4.0,4.0,4.0,0.0,4.0,4.0,4.0,4.0,0.0,4.0,4.0,4.0,4.0,4.0,4.0
115.0,0.0,4154.871794871797,4661.0256410256425,4180.000000000002,4177.94871794872,4244.615384615386,4198.46153846154,4188.71794871795,4201.538461538463,4201.538461538463,4185.128205128207,4185.641025641027,4206.153846153848,4187.179487179489,4169.743589743592,798.0,2047.0,2048.0,0.0,0.0,4.0,4.0,4.0,4.0,0.0,4.0,4.0,4.0,4.0,0.0,4.0,4.0,4.0,4.0,4.0,4.0
116.0,0.0,4162.564102564104,4666.153846153848,4198.97435897436,4187.692307692309,4247.692307692309,4200.000000000002,4187.692307692309,4183.589743589745,4185.641025641027,4184.102564102565,4185.128205128207,4211.794871794873,4187.692307692309,4173.846153846155,798.0,2047.0,2048.0,0.0,0.0,4.0,4.0,4.0,4.0,0.0,4.0,4.0,4.0,4.0,0.0,4.0,4.0,4.0,4.0,4.0,4.0
117.0,0.0,4161.0256410256425,4661.0256410256425,4177.94871794872,4185.641025641027,4237.435897435899,4195.384615384617,4181.538461538463,4179.487179487181,4182.564102564104,4184.102564102565,4180.000000000002,4205.128205128207,4182.051282051283,4171.794871794873,406.0,2047.0,2048.0,0.0,0.0,4.0,4.0,4.0,4.0,0.0,4.0,4.0,4.0,4.0,0.0,4.0,4.0,4.0,4.0,4.0,4.0
118.0,0.0,4162.564102564104,4656.410256410258,4167.692307692309,4182.564102564104,4234.871794871797,4189.743589743592,4173.846153846155,4192.8205128205145,4196.923076923078,4185.641025641027,4183.589743589745,4206.666666666668,4185.641025641027,4175.384615384617,828.0,2047.0,2048.0,0.0,0.0,4.0,4.0,4.0,4.0,0.0,4.0,4.0,4.0,4.0,0.0,4.0,4.0,4.0,4.0,4.0,4.0
119.0,0.0,4175.897435897437,4664.102564102565,4180.000000000002,4189.743589743592,4237.435897435899,4197.94871794872,4180.512820512822,4196.410256410258,4200.512820512822,4185.128205128207,4193.846153846155,4210.769230769232,4194.3589743589755,4188.71794871795,798.0,2047.0,2048.0,0.0,0.0,4.0,4.0,4.0,4.0,0.0,4.0,4.0,4.0,4.0,0.0,4.0,4.0,4.0,4.0,4.0,4.0
120.0,0.0,4182.564102564104,4672.8205128205145,4188.71794871795,4195.897435897437,4239.487179487181,4210.769230769232,4195.897435897437,4193.333333333335,4194.3589743589755,4184.615384615386,4200.000000000002,4214.871794871797,4195.897435897437,4192.307692307694,798.0,2047.0,2048.0,0.0,0.0,4.0,4.0,4.0,4.0,0.0,4.0,4.0,4.0,4.0,0.0,4.0,4.0,4.0,4.0,4.0,4.0
121.0,0.0,4181.0256410256425,4676.410256410258,4185.641025641027,4195.384615384617,4239.487179487181,4212.8205128205145,4195.897435897437,4201.0256410256425,4199.487179487181,4185.641025641027,4202.564102564104,4217.435897435899,4201.538461538463,4194.871794871797,406.0,2047.0,2048.0,0.0,0.0,4.0,4.0,4.0,4.0,0.0,4.0,4.0,4.0,4.0,0.0,4.0,4.0,4.0,4.0,4.0,4.0
122.0,0.0,4178.97435897436,4675.897435897437,4197.435897435899,4196.410256410258,4245.641025641027,4208.71794871795,4199.487179487181,4210.769230769232,4211.794871794873,4185.128205128207,4205.641025641027,4210.769230769232,4209.23076923077,4198.46153846154,828.0,2047.0,2048.0,0.0,0.0,4.0,4.0,4.0,4.0,0.0,4.0,4.0,4.0,4.0,0.0,4.0,4.0,4.0,4.0,4.0,4.0
123.0,0.0,4180.512820512822,4672.8205128205145,4232.307692307694,4201.0256410256425,4256.410256410258,4205.128205128207,4223.589743589745,4219.487179487181,4213.333333333335,4185.128205128207,4213.846153846155,4215.897435897437,4191.282051282053,4197.94871794872,798.0,2047.0,2048.0,0.0,0.0,4.0,4.0,4.0,4.0,0.0,4.0,4.0,4.0,4.0,0.0,4.0,4.0,4.0,4.0,4.0,4.0
124.0,0.0,4177.94871794872,4665.128205128207,4205.128205128207,4199.487179487181,4236.923076923078,4203.076923076925,4216.923076923078,4217.94871794872,4206.153846153848,4186.153846153848,4215.897435897437,4217.435897435899,4164.102564102565,4193.846153846155,798.0,2047.0,2048.0,0.0,0.0,4.0,4.0,4.0,4.0,0.0,4.0,4.0,4.0,4.0,0.0,4.0,4.0,4.0,4.0,4.0,4.0
125.0,0.0,4171.794871794873,4657.94871794872,4122.564102564104,4193.333333333335,4211.282051282053,4204.615384615386,4170.256410256412,4203.589743589745,4202.051282051283,4185.641025641027,4200.000000000002,4208.71794871795,4174.3589743589755,4188.20512820513,406.0,2047.0,2048.0,0.0,0.0,4.0,4.0,4.0,4.0,0.0,4.0,4.0,4.0,4.0,0.0,4.0,4.0,4.0,4.0,4.0,4.0
126.0,0.0,4173.846153846155,4660.512820512822,4131.794871794873,4196.923076923078,4225.641025641027,4203.076923076925,4171.282051282053,4204.102564102565,4203.076923076925,4184.102564102565,4186.666666666668,4207.179487179489,4201.538461538463,4189.23076923077,828.0,2047.0,2048.0,0.0,0.0,4.0,4.0,4.0,4.0,0.0,4.0,4.0,4.0,4.0,0.0,4.0,4.0,4.0,4.0,4.0,4.0
127.0,0.0,4177.94871794872,4658.46153846154,4235.897435897437,4194.871794871797,4257.94871794872,4201.0256410256425,4225.128205128207,4215.897435897437,4203.076923076925,4184.102564102565,4194.871794871797,4207.179487179489,4200.000000000002,4201.0256410256425,798.0,2047.0,2048.0,0.0,0.0,4.0,4.0,4.0,4.0,0.0,4.0,4.0,4.0,4.0,0.0,4.0,4.0,4.0,4.0,4.0,4.0
128.0,0.0,4176.410256410258,4649.23076923077,4274.871794871797,4186.153846153848,4261.0256410256425,4203.589743589745,4240.512820512822,4213.333333333335,4201.538461538463,4184.615384615386,4204.615384615386,4214.871794871797,4200.000000000002,4204.102564102565,798.0,2047.0,2048.0,0.0,0.0,4.0,4.0,4.0,4.0,0.0,4.0,4.0,4.0,4.0,0.0,4.0,4.0,4.0,4.0,4.0,4.0
0.0,0.0,4170.769230769232,4649.23076923077,4189.743589743592,4188.71794871795,4229.23076923077,4202.051282051283,4202.564102564104,4209.23076923077,4201.0256410256425,4185.128205128207,4198.46153846154,4212.8205128205145,4205.128205128207,4190.256410256412,694.0,2047.0,2048.0,0.0,0.0,4.0,4.0,4.0,4.0,0.0,4.0,4.0,4.0,4.0,0.0,4.0,4.0,4.0,4.0,4.0,4.0
1.0,0.0,4175.384615384617,4658.97435897436,4129.23076923077,4200.000000000002,4216.410256410258,4199.487179487181,4182.051282051283,4217.435897435899,4206.153846153848,4185.128205128207,4202.564102564104,4207.692307692309,4197.435897435899,4199.487179487181,828.0,2047.0,2048.0,0.0,0.0,4.0,4.0,4.0,4.0,0.0,4.0,4.0,4.0,4.0,0.0,4.0,4.0,4.0,4.0,4.0,4.0
2.0,0.0,4184.615384615386,4661.538461538463,4182.564102564104,4200.512820512822,4241.0256410256425,4200.000000000002,4195.384615384617,4211.794871794873,4204.615384615386,4184.615384615386,4205.641025641027,4211.794871794873,4198.97435897436,4214.871794871797,806.0,2047.0,2048.0,0.0,0.0,4.0,4.0,4.0,4.0,0.0,4.0,4.0,4.0,4.0,0.0,4.0,4.0,4.0,4.0,4.0,4.0
3.0,0.0,4175.384615384617,4655.384615384617,4229.743589743592,4192.8205128205145,4253.333333333335,4198.46153846154,4207.179487179489,4194.3589743589755,4191.794871794873,4185.641025641027,4185.128205128207,4202.051282051283,4200.000000000002,4188.20512820513,790.0,2047.0,2048.0,0.0,0.0,4.0,4.0,4.0,4.0,0.0,4.0,4.0,4.0,4.0,0.0,4.0,4.0,4.0,4.0,4.0,4.0
4.0,0.0,4171.282051282053,4658.46153846154,4207.692307692309,4195.384615384617,4241.538461538463,4198.97435897436,4205.128205128207,4197.435897435899,4192.8205128205145,4186.153846153848,4182.564102564104,4200.000000000002,4192.307692307694,4171.282051282053,0.0,2047.0,2048.0,0.0,0.0,4.0,4.0,4.0,4.0,0.0,4.0,4.0,4.0,4.0,0.0,4.0,4.0,4.0,4.0,4.0,4.0
5.0,0.0,4184.615384615386,4664.102564102565,4184.102564102565,4202.051282051283,4229.23076923077,4197.435897435899,4195.897435897437,4206.666666666668,4204.102564102565,4184.102564102565,4207.692307692309,4209.743589743592,4197.435897435899,4195.897435897437,785.0,2047.0,2048.0,0.0,0.0,4.0,4.0,4.0,4.0,0.0,4.0,4.0,4.0,4.0,0.0,4.0,4.0,4.0,4.0,4.0,4.0
6.0,0.0,4187.692307692309,4658.46153846154,4194.871794871797,4202.051282051283,4233.333333333335,4188.20512820513,4189.23076923077,4199.487179487181,4194.3589743589755,4183.589743589745,4205.641025641027,4209.743589743592,4207.692307692309,4203.589743589745,806.0,2047.0,2048.0,0.0,0.0,4.0,4.0,4.0,4.0,0.0,4.0,4.0,4.0,4.0,0.0,4.0,4.0,4.0,4.0,4.0,4.0
7.0,0.0,4178.46153846154,4650.256410256412,4206.666666666668,4197.435897435899,4241.538461538463,4186.153846153848,4186.153846153848,4183.589743589745,4179.487179487181,4186.153846153848,4184.615384615386,4205.128205128207,4200.000000000002,4182.564102564104,819.0,2047.0,2048.0,0.0,0.0,4.0,4.0,4.0,4.0,0.0,4.0,4.0,4.0,4.0,0.0,4.0,4.0,4.0,4.0,4.0,4.0
8.0,0.0,4170.769230769232,4649.23076923077,4187.692307692309,4196.923076923078,4233.846153846155,4198.46153846154,4187.692307692309,4185.128205128207,4187.179487179489,4186.153846153848,4190.769230769232,4200.000000000002,4196.410256410258,4178.46153846154,638.0,2047.0,2048.0,0.0,0.0,4.0,4.0,4.0,4.0,0.0,4.0,4.0,4.0,4.0,0.0,4.0,4.0,4.0,4.0,4.0,4.0
9.0,0.0,4174.3589743589755,4653.846153846155,4162.051282051283,4201.538461538463,4224.102564102565,4204.615384615386,4187.692307692309,4205.641025641027,4197.94871794872,4184.615384615386,4202.564102564104,4207.179487179489,4205.641025641027,4188.71794871795,0.0,2047.0,2048.0,0.0,0.0,4.0,4.0,4.0,4.0,0.0,4.0,4.0,4.0,4.0,0.0,4.0,4.0,4.0,4.0,4.0,4.0
10.0,0.0,4186.153846153848,4657.435897435899,4164.615384615386,4203.076923076925,4226.153846153848,4201.0256410256425,4186.666666666668,4218.46153846154,4198.46153846154,4185.128205128207,4206.666666666668,4216.410256410258,4213.333333333335,4197.94871794872,852.0,2047.0,2048.0,0.0,0.0,4.0,4.0,4.0,4.0,0.0,4.0,4.0,4.0,4.0,0.0,4.0,4.0,4.0,4.0,4.0,4.0
11.0,0.0,4188.71794871795,4656.410256410258,4204.102564102565,4204.102564102565,4242.564102564104,4202.051282051283,4204.102564102565,4214.871794871797,4202.051282051283,4186.666666666668,4203.076923076925,4211.282051282053,4214.871794871797,4201.538461538463,818.0,2047.0,2048.0,0.0,0.0,4.0,4.0,4.0,4.0,0.0,4.0,4.0,4.0,4.0,0.0,4.0,4.0,4.0,4.0,4.0,4.0
12.0,0.0,4180.512820512822,4653.333333333335,4238.97435897436,4203.589743589745,4253.333333333335,4203.076923076925,4225.641025641027,4202.051282051283,4197.94871794872,4185.641025641027,4190.769230769232,4206.666666666668,4208.71794871795,4192.307692307694,841.0,2047.0,2048.0,0.0,0.0,4.0,4.0,4.0,4.0,0.0,4.0,4.0,4.0,4.0,0.0,4.0,4.0,4.0,4.0,4.0,4.0
13.0,0.0,4175.384615384617,4656.923076923078,4206.666666666668,4202.564102564104,4235.897435897437,4200.000000000002,4210.256410256412,4186.153846153848,4186.153846153848,4184.102564102565,4187.692307692309,4201.538461538463,4212.307692307694,4183.076923076925,406.0,2047.0,2048.0,0.0,0.0,4.0,4.0,4.0,4.0,0.0,4.0,4.0,4.0,4.0,0.0,4.0,4.0,4.0,4.0,4.0,4.0
14.0,0.0,4174.871794871797,4655.897435897437,4148.20512820513,4201.0256410256425,4221.538461538463,4202.051282051283,4180.000000000002,4195.384615384617,4191.794871794873,4185.128205128207,4194.3589743589755,4202.564102564104,4221.0256410256425,4182.564102564104,852.0,2047.0,2048.0,0.0,0.0,4.0,4.0,4.0,4.0,0.0,4.0,4.0,4.0,4.0,0.0,4.0,4.0,4.0,4.0,4.0,4.0
15.0,0.0,4172.307692307694,4643.589743589745,4152.307692307694,4201.0256410256425,4229.23076923077,4202.564102564104,4190.256410256412,4217.94871794872,4208.71794871795,4185.641025641027,4195.897435897437,4206.153846153848,4213.333333333335,4183.589743589745,818.0,2047.0,2048.0,0.0,0.0,4.0,4.0,4.0,4.0,0.0,4.0,4.0,4.0,4.0,0.0,4.0,4.0,4.0,4.0,4.0,4.0
16.0,0.0,4169.743589743592,4641.0256410256425,4195.384615384617,4197.94871794872,4239.487179487181,4197.94871794872,4216.923076923078,4209.23076923077,4200.000000000002,4184.615384615386,4190.769230769232,4201.0256410256425,4202.564102564104,4181.538461538463,0.0,2047.0,2048.0,0.0,0.0,4.0,4.0,4.0,4.0,0.0,4.0,4.0,4.0,4.0,0.0,4.0,4.0,4.0,4.0,4.0,4.0
17.0,0.0,4168.71794871795,4651.794871794873,4170.256410256412,4194.871794871797,4228.20512820513,4196.923076923078,4198.46153846154,4201.0256410256425,4185.641025641027,4185.128205128207,4195.897435897437,4206.666666666668,4205.641025641027,4185.641025641027,0.0,2047.0,2048.0,0.0,0.0,4.0,4.0,4.0,4.0,0.0,4.0,4.0,4.0,4.0,0.0,4.0,4.0,4.0,4.0,4.0,4.0
18.0,0.0,4168.20512820513,4655.384615384617,4114.3589743589755,4196.923076923078,4213.333333333335,4197.94871794872,4170.256410256412,4214.871794871797,4196.923076923078,4185.128205128207,4199.487179487181,4209.23076923077,4208.20512820513,4190.256410256412,0.0,2047.0,2048.0,0.0,0.0,4.0,4.0,4.0,4.0,0.0,4.0,4.0,4.0,4.0,0.0,4.0,4.0,4.0,4.0,4.0,4.0
19.0,0.0,4174.871794871797,4650.769230769232,4191.794871794873,4198.46153846154,4246.153846153848,4196.923076923078,4199.487179487181,4207.692307692309,4205.641025641027,4184.615384615386,4191.794871794873,4206.153846153848,4202.564102564104,4184.615384615386,0.0,2047.0,2048.0,0.0,0.0,4.0,4.0,4.0,4.0,0.0,4.0,4.0,4.0,4.0,0.0,4.0,4.0,4.0,4.0,4.0,4.0
20.0,0.0,4172.307692307694,4643.076923076925,4309.743589743592,4196.410256410258,4280.000000000002,4197.94871794872,4247.692307692309,4192.8205128205145,4194.871794871797,4185.128205128207,4183.589743589745,4204.102564102565,4200.000000000002,4175.897435897437,0.0,2047.0,2048.0,0.0,0.0,4.0,4.0,4.0,4.0,0.0,4.0,4.0,4.0,4.0,0.0,4.0,4.0,4.0,4.0,4.0,4.0
21.0,0.0,4164.102564102565,4634.871794871797,4217.94871794872,4193.333333333335,4233.846153846155,4200.512820512822,4220.000000000002,4203.589743589745,4192.307692307694,4185.641025641027,4183.076923076925,4202.051282051283,4201.538461538463,4175.897435897437,0.0,2047.0,2048.0,0.0,0.0,4.0,4.0,4.0,4.0,0.0,4.0,4.0,4.0,4.0,0.0,4.0,4.0,4.0,4.0,4.0,4.0
22.0,0.0,4172.307692307694,4635.384615384617,4014.358974358976,4192.8205128205145,4169.743589743592,4201.538461538463,4132.307692307694,4206.666666666668,4196.923076923078,4185.128205128207,4187.179487179489,4208.20512820513,4201.0256410256425,4183.076923076925,0.0,2047.0,2048.0,0.0,0.0,4.0,4.0,4.0,4.0,0.0,4.0,4.0,4.0,4.0,0.0,4.0,4.0,4.0,4.0,4.0,4.0
23.0,0.0,4177.94871794872,4641.538461538463,4037.9487179487196,4191.794871794873,4196.410256410258,4199.487179487181,4135.384615384617,4195.384615384617,4194.871794871797,4185.641025641027,4189.743589743592,4207.179487179489,4203.076923076925,4186.153846153848,0.0,2047.0,2048.0,0.0,0.0,4.0,4.0,4.0,4.0,0.0,4.0,4.0,4.0,4.0,0.0,4.0,4.0,4.0,4.0,4.0,4.0
24.0,0.0,4176.410256410258,4645.128205128207,4287.179487179489,4191.794871794873,4284.102564102565,4198.46153846154,4238.97435897436,4198.97435897436,4195.384615384617,4186.153846153848,4191.282051282053,4206.666666666668,4212.307692307694,4187.179487179489,0.0,2047.0,2048.0,0.0,0.0,4.0,4.0,4.0,4.0,0.0,4.0,4.0,4.0,4.0,0.0,4.0,4.0,4.0,4.0,4.0,4.0
25.0,0.0,4178.46153846154,4640.000000000002,4376.410256410258,4191.282051282053,4294.3589743589755,4197.435897435899,4274.3589743589755,4202.051282051283,4195.897435897437,4184.615384615386,4188.71794871795,4210.256410256412,4216.923076923078,4187.692307692309,0.0,2047.0,2048.0,0.0,0.0,4.0,4.0,4.0,4.0,0.0,4.0,4.0,4.0,4.0,0.0,4.0,4.0,4.0,4.0,4.0,4.0
26.0,0.0,4177.94871794872,4632.307692307694,4180.512820512822,4193.846153846155,4215.897435897437,4197.435897435899,4189.23076923077,4195.897435897437,4192.307692307694,4186.153846153848,4193.333333333335,4207.692307692309,4214.871794871797,4191.282051282053,0.0,2047.0,2048.0,0.0,0.0,4.0,4.0,4.0,4.0,0.0,4.0,4.0,4.0,4.0,0.0,4.0,4.0,4.0,4.0,4.0,4.0
27.0,0.0,4177.435897435899,4638.97435897436,4031.2820512820526,4202.051282051283,4180.512820512822,4201.538461538463,4125.641025641027,4197.435897435899,4193.333333333335,4187.179487179489,4201.538461538463,4210.769230769232,4215.897435897437,4200.000000000002,0.0,2047.0,2048.0,0.0,0.0,4.0,4.0,4.0,4.0,0.0,4.0,4.0,4.0,4.0,0.0,4.0,4.0,4.0,4.0,4.0,4.0
28.0,0.0,4178.46153846154,4641.538461538463,4125.128205128207,4198.46153846154,4226.153846153848,4202.564102564104,4176.410256410258,4210.769230769232,4201.0256410256425,4185.641025641027,4196.410256410258,4211.794871794873,4218.46153846154,4197.94871794872,0.0,2047.0,2048.0,0.0,0.0,4.0,4.0,4.0,4.0,0.0,4.0,4.0,4.0,4.0,0.0,4.0,4.0,4.0,4.0,4.0,4.0
29.0,0.0,4173.333333333335,4628.20512820513,4269.23076923077,4188.71794871795,4267.179487179489,4201.538461538463,4245.641025641027,4219.487179487181,4204.615384615386,4183.589743589745,4184.615384615386,4207.179487179489,4203.076923076925,4181.0256410256425,0.0,2047.0,2048.0,0.0,0.0,4.0,4.0,4.0,4.0,0.0,4.0,4.0,4.0,4.0,0.0,4.0,4.0,4.0,4.0,4.0,4.0
30.0,0.0,4163.076923076925,4620.512820512822,4261.538461538463,4183.589743589745,4251.794871794873,4206.153846153848,4246.666666666668,4214.3589743589755,4197.94871794872,4184.615384615386,4175.384615384617,4203.076923076925,4180.512820512822,4164.615384615386,0.0,2047.0,2048.0,0.0,0.0,4.0,4.0,4.0,4.0,0.0,4.0,4.0,4.0,4.0,0.0,4.0,4.0,4.0,4.0,4.0,4.0
31.0,0.0,4161.0256410256425,4624.615384615386,4169.23076923077,4182.564102564104,4225.128205128207,4204.102564102565,4208.20512820513,4208.20512820513,4189.743589743592,4184.102564102565,4170.769230769232,4195.384615384617,4181.0256410256425,4164.615384615386,0.0,2047.0,2048.0,0.0,0.0,4.0,4.0,4.0,4.0,0.0,4.0,4.0,4.0,4.0,0.0,4.0,4.0,4.0,4.0,4.0,4.0
32.0,0.0,4170.256410256412,4630.769230769232,4162.051282051283,4190.256410256412,4231.282051282053,4188.71794871795,4186.666666666668,4201.538461538463,4187.179487179489,4183.589743589745,4170.256410256412,4200.512820512822,4193.333333333335,4169.743589743592,0.0,2047.0,2048.0,0.0,0.0,4.0,4.0,4.0,4.0,0.0,4.0,4.0,4.0,4.0,0.0,4.0,4.0,4.0,4.0,4.0,4.0
33.0,0.0,4169.23076923077,4626.153846153848,4194.3589743589755,4195.897435897437,4237.94871794872,4184.102564102565,4178.46153846154,4184.102564102565,4182.564102564104,4184.615384615386,4171.794871794873,4202.051282051283,4190.256410256412,4159.487179487181,0.0,2047.0,2048.0,0.0,0.0,4.0,4.0,4.0,4.0,0.0,4.0,4.0,4.0,4.0,0.0,4.0,4.0,4.0,4.0,4.0,4.0
34.0,0.0,4154.871794871797,4616.923076923078,4135.384615384617,4189.23076923077,4218.46153846154,4197.435897435899,4154.871794871797,4169.743589743592,4173.333333333335,4184.615384615386,4170.769230769232,4194.3589743589755,4178.97435897436,4149.743589743592,0.0,2047.0,2048.0,0.0,0.0,4.0,4.0,4.0,4.0,0.0,4.0,4.0,4.0,4.0,0.0,4.0,4.0,4.0,4.0,4.0,4.0
35.0,0.0,4156.923076923078,4622.051282051283,4076.9230769230785,4184.102564102565,4207.692307692309,4205.641025641027,4148.20512820513,4177.94871794872,4170.256410256412,4185.641025641027,4170.256410256412,4196.923076923078,4172.307692307694,4159.487179487181,0.0,2047.0,2048.0,0.0,0.0,4.0,4.0,4.0,4.0,0.0,4.0,4.0,4.0,4.0,0.0,4.0,4.0,4.0,4.0,4.0,4.0
36.0,0.0,4163.076923076925,4631.282051282053,4158.97435897436,4187.692307692309,4237.94871794872,4195.897435897437,4185.128205128207,4186.666666666668,4170.769230769232,4186.666666666668,4168.71794871795,4199.487179487181,4158.46153846154,4158.46153846154,0.0,2047.0,2048.0,0.0,0.0,4.0,4.0,4.0,4.0,0.0,4.0,4.0,4.0,4.0,0.0,4.0,4.0,4.0,4.0,4.0,4.0
37.0,0.0,4160.512820512822,4626.666666666668,4287.692307692309,4185.641025641027,4272.8205128205145,4186.153846153848,4227.179487179489,4182.051282051283,4173.333333333335,4184.615384615386,4165.641025641027,4202.051282051283,4150.256410256412,4145.128205128207,0.0,2047.0,2048.0,0.0,0.0,4.0,4.0,4.0,4.0,0.0,4.0,4.0,4.0,4.0,0.0,4.0,4.0,4.0,4.0,4.0,4.0
38.0,0.0,4166.666666666668,4619.487179487181,4259.487179487181,4184.615384615386,4248.20512820513,4189.23076923077,4211.794871794873,4183.589743589745,4184.102564102565,4185.128205128207,4172.8205128205145,4203.076923076925,4169.23076923077,4157.435897435899,0.0,2047.0,2048.0,0.0,0.0,4.0,4.0,4.0,4.0,0.0,4.0,4.0,4.0,4.0,0.0,4.0,4.0,4.0,4.0,4.0,4.0
39.0,0.0,4176.923076923078,4618.97435897436,4103.076923076925,4187.179487179489,4196.923076923078,4190.769230769232,4149.743589743592,4189.23076923077,4187.179487179489,4187.179487179489,4184.615384615386,4202.564102564104,4192.307692307694,4176.923076923078,0.0,2047.0,2048.0,0.0,0.0,4.0,4.0,4.0,4.0,0.0,4.0,4.0,4.0,4.0,0.0,4.0,4.0,4.0,4.0,4.0,4.0
40.0,0.0,4178.46153846154,4620.512820512822,4053.333333333335,4186.666666666668,4194.3589743589755,4188.71794871795,4128.71794871795,4184.615384615386,4185.128205128207,4186.666666666668,4196.410256410258,4209.743589743592,4205.128205128207,4180.512820512822,0.0,2047.0,2048.0,0.0,0.0,4.0,4.0,4.0,4.0,0.0,4.0,4.0,4.0,4.0,0.0,4.0,4.0,4.0,4.0,4.0,4.0
41.0,0.0,4178.46153846154,4621.0256410256425,4170.769230769232,4185.641025641027,4237.94871794872,4195.897435897437,4184.615384615386,4189.23076923077,4192.8205128205145,4184.615384615386,4203.076923076925,4207.179487179489,4217.94871794872,4185.641025641027,0.0,2047.0,2048.0,0.0,0.0,4.0,4.0,4.0,4.0,0.0,4.0,4.0,4.0,4.0,0.0,4.0,4.0,4.0,4.0,4.0,4.0
42.0,0.0,4180.000000000002,4614.3589743589755,4280.000000000002,4183.076923076925,4269.743589743592,4203.589743589745,4245.641025641027,4203.589743589745,4191.794871794873,4184.102564102565,4204.102564102565,4210.256410256412,4223.076923076925,4191.282051282053,0.0,2047.0,2048.0,0.0,0.0,4.0,4.0,4.0,4.0,0.0,4.0,4.0,4.0,4.0,0.0,4.0,4.0,4.0,4.0,4.0,4.0
43.0,0.0,4172.8205128205145,4603.589743589745,4239.487179487181,4177.94871794872,4247.692307692309,4198.46153846154,4225.128205128207,4195.384615384617,4184.615384615386,4184.615384615386,4207.692307692309,4211.794871794873,4216.410256410258,4186.153846153848,0.0,2047.0,2048.0,0.0,0.0,4.0,4.0,4.0,4.0,0.0,4.0,4.0,4.0,4.0,0.0,4.0,4.0,4.0,4.0,4.0,4.0
44.0,0.0,4180.512820512822,4612.8205128205145,4106.666666666668,4183.076923076925,4202.564102564104,4197.435897435899,4152.8205128205145,4188.20512820513,4192.8205128205145,4185.128205128207,4216.923076923078,4207.179487179489,4220.000000000002,4192.8205128205145,0.0,2047.0,2048.0,0.0,0.0,4.0,4.0,4.0,4.0,0.0,4.0,4.0,4.0,4.0,0.0,4.0,4.0,4.0,4.0,4.0,4.0
45.0,0.0,4204.102564102565,4631.794871794873,4054.358974358976,4195.897435897437,4194.3589743589755,4203.589743589745,4132.307692307694,4204.615384615386,4205.128205128207,4185.128205128207,4224.102564102565,4215.897435897437,4229.23076923077,4214.3589743589755,0.0,2047.0,2048.0,0.0,0.0,4.0,4.0,4.0,4.0,0.0,4.0,4.0,4.0,4.0,0.0,4.0,4.0,4.0,4.0,4.0,4.0
46.0,0.0,4204.102564102565,4629.23076923077,4172.8205128205145,4194.871794871797,4241.0256410256425,4202.051282051283,4197.435897435899,4210.769230769232,4203.589743589745,4184.615384615386,4222.564102564104,4216.923076923078,4232.307692307694,4213.333333333335,0.0,2047.0,2048.0,0.0,0.0,4.0,4.0,4.0,4.0,0.0,4.0,4.0,4.0,4.0,0.0,4.0,4.0,4.0,4.0,4.0,4.0
47.0,0.0,4187.692307692309,4612.307692307694,4341.538461538463,4184.102564102565,4295.897435897437,4200.000000000002,4265.641025641027,4196.923076923078,4198.46153846154,4185.641025641027,4214.3589743589755,4210.256410256412,4224.615384615386,4194.871794871797,0.0,2047.0,2048.0,0.0,0.0,4.0,4.0,4.0,4.0,0.0,4.0,4.0,4.0,4.0,0.0,4.0,4.0,4.0,4.0,4.0,4.0
48.0,0.0,4180.512820512822,4598.97435897436,4296.410256410258,4181.538461538463,4265.641025641027,4203.076923076925,4240.512820512822,4195.384615384617,4197.94871794872,4186.666666666668,4203.076923076925,4205.641025641027,4207.692307692309,4183.589743589745,0.0,2047.0,2048.0,0.0,0.0,4.0,4.0,4.0,4.0,0.0,4.0,4.0,4.0,4.0,0.0,4.0,4.0,4.0,4.0,4.0,4.0
49.0,0.0,4181.0256410256425,4595.384615384617,4052.8205128205145,4184.102564102565,4172.8205128205145,4199.487179487181,4136.410256410258,4201.0256410256425,4198.46153846154,4186.153846153848,4198.46153846154,4205.128205128207,4204.102564102565,4183.076923076925,0.0,2047.0,2048.0,0.0,0.0,4.0,4.0,4.0,4.0,0.0,4.0,4.0,4.0,4.0,0.0,4.0,4.0,4.0,4.0,4.0,4.0
50.0,0.0,4185.641025641027,4595.897435897437,3961.5384615384633,4187.179487179489,4158.97435897436,4189.743589743592,4092.8205128205145,4202.564102564104,4198.46153846154,4185.641025641027,4204.615384615386,4212.307692307694,4215.897435897437,4188.71794871795,0.0,2047.0,2048.0,0.0,0.0,4.0,4.0,4.0,4.0,0.0,4.0,4.0,4.0,4.0,0.0,4.0,4.0,4.0,4.0,4.0,4.0
51.0,0.0,4180.512820512822,4592.307692307694,4153.333333333335,4180.000000000002,4240.000000000002,4190.769230769232,4182.564102564104,4200.512820512822,4189.743589743592,4184.102564102565,4202.564102564104,4206.153846153848,4212.307692307694,4181.0256410256425,0.0,2047.0,2048.0,0.0,0.0,4.0,4.0,4.0,4.0,0.0,4.0,4.0,4.0,4.0,0.0,4.0,4.0,4.0,4.0,4.0,4.0
52.0,0.0,4165.128205128207,4583.589743589745,4357.94871794872,4166.666666666668,4302.564102564104,4198.46153846154,4283.076923076925,4184.102564102565,4181.0256410256425,4184.615384615386,4183.589743589745,4196.923076923078,4185.641025641027,4163.589743589745,0.0,2047.0,2048.0,0.0,0.0,4.0,4.0,4.0,4.0,0.0,4.0,4.0,4.0,4.0,0.0,4.0,4.0,4.0,4.0,4.0,4.0
53.0,0.0,4165.641025641027,4582.051282051283,4311.282051282053,4167.179487179489,4269.743589743592,4201.538461538463,4261.538461538463,4184.102564102565,4188.20512820513,4186.153846153848,4176.923076923078,4200.512820512822,4178.46153846154,4167.692307692309,0.0,2047.0,2048.0,0.0,0.0,4.0,4.0,4.0,4.0,0.0,4.0,4.0,4.0,4.0,0.0,4.0,4.0,4.0,4.0,4.0,4.0
54.0,0.0,4180.000000000002,4595.384615384617,4122.051282051283,4183.589743589745,4202.564102564104,4196.410256410258,4173.846153846155,4210.769230769232,4203.076923076925,4185.128205128207,4196.410256410258,4207.179487179489,4201.538461538463,4190.256410256412,0.0,2047.0,2048.0,0.0,0.0,4.0,4.0,4.0,4.0,0.0,4.0,4.0,4.0,4.0,0.0,4.0,4.0,4.0,4.0,4.0,4.0
55.0,0.0,4185.128205128207,4603.589743589745,4087.1794871794887,4190.769230769232,4201.538461538463,4191.794871794873,4154.871794871797,4209.23076923077,4201.0256410256425,4185.128205128207,4211.282051282053,4215.384615384617,4216.410256410258,4197.94871794872,0.0,2047.0,2048.0,0.0,0.0,4.0,4.0,4.0,4.0,0.0,4.0,4.0,4.0,4.0,0.0,4.0,4.0,4.0,4.0,4.0,4.0
56.0,0.0,4177.94871794872,4596.410256410258,4203.589743589745,4184.615384615386,4244.615384615386,4198.97435897436,4206.153846153848,4185.641025641027,4189.23076923077,4185.641025641027,4203.589743589745,4209.23076923077,4210.256410256412,4188.71794871795,0.0,2047.0,2048.0,0.0,0.0,4.0,4.0,4.0,4.0,0.0,4.0,4.0,4.0,4.0,0.0,4.0,4.0,4.0,4.0,4.0,4.0
57.0,0.0,4173.846153846155,4596.923076923078,4232.307692307694,4184.102564102565,4249.743589743592,4207.692307692309,4218.46153846154,4189.23076923077,4182.051282051283,4184.102564102565,4194.871794871797,4204.615384615386,4197.94871794872,4177.94871794872,0.0,2047.0,2048.0,0.0,0.0,4.0,4.0,4.0,4.0,0.0,4.0,4.0,4.0,4.0,0.0,4.0,4.0,4.0,4.0,4.0,4.0
58.0,0.0,4174.871794871797,4600.512820512822,4128.20512820513,4186.153846153848,4213.333333333335,4201.538461538463,4166.666666666668,4202.564102564104,4181.538461538463,4184.615384615386,4201.0256410256425,4211.282051282053,4193.333333333335,4174.3589743589755,0.0,2047.0,2048.0,0.0,0.0,4.0,4.0,4.0,4.0,0.0,4.0,4.0,4.0,4.0,0.0,4.0,4.0,4.0,4.0,4.0,4.0
59.0,0.0,4176.410256410258,4595.384615384617,4102.051282051283,4180.512820512822,4210.769230769232,4200.512820512822,4164.615384615386,4206.153846153848,4190.769230769232,4185.641025641027,4207.692307692309,4208.71794871795,4197.435897435899,4179.487179487181,0.0,2047.0,2048.0,0.0,0.0,4.0,4.0,4.0,4.0,0.0,4.0,4.0,4.0,4.0,0.0,4.0,4.0,4.0,4.0,4.0,4.0
60.0,0.0,4177.94871794872,4595.384615384617,4230.769230769232,4175.384615384617,4258.46153846154,4202.564102564104,4227.179487179489,4200.512820512822,4189.743589743592,4184.615384615386,4197.435897435899,4206.153846153848,4194.871794871797,4182.564102564104,0.0,2047.0,2048.0,0.0,0.0,4.0,4.0,4.0,4.0,0.0,4.0,4.0,4.0,4.0,0.0,4.0,4.0,4.0,4.0,4.0,4.0
61.0,0.0,4176.410256410258,4605.641025641027,4294.3589743589755,4181.538461538463,4268.71794871795,4191.794871794873,4235.384615384617,4185.641025641027,4177.94871794872,4185.641025641027,4188.71794871795,4203.589743589745,4188.71794871795,4175.897435897437,0.0,2047.0,2048.0,0.0,0.0,4.0,4.0,4.0,4.0,0.0,4.0,4.0,4.0,4.0,0.0,4.0,4.0,4.0,4.0,4.0,4.0
62.0,0.0,4182.051282051283,4606.666666666668,4183.076923076925,4189.743589743592,4221.538461538463,4189.743589743592,4177.94871794872,4182.051282051283,4180.512820512822,4186.666666666668,4200.512820512822,4207.179487179489,4197.435897435899,4177.94871794872,0.0,2047.0,2048.0,0.0,0.0,4.0,4.0,4.0,4.0,0.0,4.0,4.0,4.0,4.0,0.0,4.0,4.0,4.0,4.0,4.0,4.0
63.0,0.0,4186.153846153848,4602.564102564104,4085.1282051282064,4194.3589743589755,4193.333333333335,4200.512820512822,4150.769230769232,4199.487179487181,4198.97435897436,4184.102564102565,4213.846153846155,4215.384615384617,4212.307692307694,4194.871794871797,0.0,2047.0,2048.0,0.0,0.0,4.0,4.0,4.0,4.0,0.0,4.0,4.0,4.0,4.0,0.0,4.0,4.0,4.0,4.0,4.0,4.0
64.0,0.0,4182.051282051283,4605.128205128207,4148.71794871795,4198.97435897436,4223.589743589745,4202.051282051283,4188.20512820513,4211.794871794873,4198.46153846154,4183.589743589745,4208.71794871795,4210.256410256412,4207.692307692309,4195.384615384617,695.0,2047.0,2048.0,0.0,0.0,4.0,4.0,4.0,4.0,0.0,4.0,4.0,4.0,4.0,0.0,4.0,4.0,4.0,4.0,4.0,4.0
65.0,0.0,4186.153846153848,4611.794871794873,4269.23076923077,4201.538461538463,4263.076923076925,4198.97435897436,4231.794871794873,4201.538461538463,4185.128205128207,4185.641025641027,4198.46153846154,4209.23076923077,4196.923076923078,4182.564102564104,829.0,2047.0,2048.0,0.0,0.0,4.0,4.0,4.0,4.0,0.0,4.0,4.0,4.0,4.0,0.0,4.0,4.0,4.0,4.0,4.0,4.0
66.0,0.0,4195.384615384617,4617.94871794872,4273.333333333335,4201.0256410256425,4250.769230769232,4202.051282051283,4224.615384615386,4189.743589743592,4190.256410256412,4185.641025641027,4202.564102564104,4211.794871794873,4206.153846153848,4186.153846153848,806.0,2047.0,2048.0,0.0,0.0,4.0,4.0,4.0,4.0,0.0,4.0,4.0,4.0,4.0,0.0,4.0,4.0,4.0,4.0,4.0,4.0
67.0,0.0,4194.871794871797,4611.794871794873,4168.20512820513,4201.0256410256425,4211.282051282053,4202.051282051283,4178.46153846154,4191.794871794873,4198.46153846154,4184.102564102565,4209.743589743592,4212.307692307694,4215.897435897437,4195.897435897437,792.0,2047.0,2048.0,0.0,0.0,4.0,4.0,4.0,4.0,0.0,4.0,4.0,4.0,4.0,0.0,4.0,4.0,4.0,4.0,4.0,4.0
68.0,0.0,4195.384615384617,4608.20512820513,4080.512820512822,4201.538461538463,4194.871794871797,4200.512820512822,4141.0256410256425,4203.076923076925,4194.3589743589755,4185.128205128207,4210.256410256412,4216.410256410258,4209.23076923077,4198.46153846154,0.0,2047.0,2048.0,0.0,0.0,4.0,4.0,4.0,4.0,0.0,4.0,4.0,4.0,4.0,0.0,4.0,4.0,4.0,4.0,4.0,4.0
69.0,0.0,4196.923076923078,4617.94871794872,4115.897435897437,4202.564102564104,4216.923076923078,4197.435897435899,4161.0256410256425,4199.487179487181,4185.128205128207,4186.153846153848,4203.076923076925,4208.71794871795,4198.97435897436,4192.307692307694,785.0,2047.0,2048.0,0.0,0.0,4.0,4.0,4.0,4.0,0.0,4.0,4.0,4.0,4.0,0.0,4.0,4.0,4.0,4.0,4.0,4.0
70.0,0.0,4193.333333333335,4621.0256410256425,4274.871794871797,4201.0256410256425,4271.282051282053,4188.71794871795,4227.179487179489,4186.153846153848,4181.538461538463,4184.615384615386,4193.846153846155,4206.666666666668,4192.307692307694,4186.153846153848,806.0,2047.0,2048.0,0.0,0.0,4.0,4.0,4.0,4.0,0.0,4.0,4.0,4.0,4.0,0.0,4.0,4.0,4.0,4.0,4.0,4.0
71.0,0.0,4190.256410256412,4611.794871794873,4356.923076923078,4200.000000000002,4284.615384615386,4190.769230769232,4260.000000000002,4186.666666666668,4183.076923076925,4184.102564102565,4193.333333333335,4210.769230769232,4193.846153846155,4184.615384615386,819.0,2047.0,2048.0,0.0,0.0,4.0,4.0,4.0,4.0,0.0,4.0,4.0,4.0,4.0,0.0,4.0,4.0,4.0,4.0,4.0,4.0
72.0,0.0,4190.256410256412,4606.153846153848,4203.076923076925,4201.538461538463,4216.410256410258,4200.000000000002,4194.3589743589755,4196.410256410258,4189.743589743592,4185.128205128207,4197.435897435899,4210.256410256412,4193.333333333335,4183.589743589745,646.0,2047.0,2048.0,0.0,0.0,4.0,4.0,4.0,4.0,0.0,4.0,4.0,4.0,4.0,0.0,4.0,4.0,4.0,4.0,4.0,4.0
73.0,0.0,4195.897435897437,4608.20512820513,4004.615384615386,4202.564102564104,4155.897435897437,4198.97435897436,4108.71794871795,4209.743589743592,4202.051282051283,4185.641025641027,4207.692307692309,4212.8205128205145,4196.410256410258,4188.71794871795,0.0,2047.0,2048.0,0.0,0.0,4.0,4.0,4.0,4.0,0.0,4.0,4.0,4.0,4.0,0.0,4.0,4.0,4.0,4.0,4.0,4.0
74.0,0.0,4200.000000000002,4608.20512820513,4065.1282051282064,4201.0256410256425,4196.410256410258,4195.897435897437,4145.641025641027,4207.179487179489,4207.692307692309,4185.128205128207,4220.000000000002,4212.307692307694,4205.641025641027,4203.076923076925,857.0,2047.0,2048.0,0.0,0.0,4.0,4.0,4.0,4.0,0.0,4.0,4.0,4.0,4.0,0.0,4.0,4.0,4.0,4.0,4.0,4.0
75.0,0.0,4198.97435897436,4609.743589743591,4320.000000000002,4202.051282051283,4285.128205128207,4201.538461538463,4255.897435897437,4187.692307692309,4195.897435897437,4185.128205128207,4212.307692307694,4214.3589743589755,4204.102564102565,4205.641025641027,825.0,2047.0,2048.0,0.0,0.0,4.0,4.0,4.0,4.0,0.0,4.0,4.0,4.0,4.0,0.0,4.0,4.0,4.0,4.0,4.0,4.0
76.0,0.0,4192.8205128205145,4608.71794871795,4388.20512820513,4200.512820512822,4288.71794871795,4201.0256410256425,4271.282051282053,4182.564102564104,4186.153846153848,4184.615384615386,4201.538461538463,4211.282051282053,4201.0256410256425,4194.871794871797,847.0,2047.0,2048.0,0.0,0.0,4.0,4.0,4.0,4.0,0.0,4.0,4.0,4.0,4.0,0.0,4.0,4.0,4.0,4.0,4.0,4.0
77.0,0.0,4182.564102564104,4599.487179487181,4178.46153846154,4196.923076923078,4211.794871794873,4189.743589743592,4178.46153846154,4189.23076923077,4189.23076923077,4184.102564102565,4204.102564102565,4205.128205128207,4202.051282051283,4189.23076923077,405.0,2047.0,2048.0,0.0,0.0,4.0,4.0,4.0,4.0,0.0,4.0,4.0,4.0,4.0,0.0,4.0,4.0,4.0,4.0,4.0,4.0
78.0,0.0,4180.512820512822,4591.794871794873,4024.102564102566,4200.512820512822,4175.384615384617,4183.076923076925,4120.512820512822,4182.564102564104,4189.743589743592,4184.102564102565,4210.256410256412,4210.769230769232,4203.589743589745,4190.769230769232,857.0,2047.0,2048.0,0.0,0.0,4.0,4.0,4.0,4.0,0.0,4.0,4.0,4.0,4.0,0.0,4.0,4.0,4.0,4.0,4.0,4.0
79.0,0.0,4179.487179487181,4592.307692307694,4117.94871794872,4197.94871794872,4218.46153846154,4183.076923076925,4170.769230769232,4187.179487179489,4188.71794871795,4185.641025641027,4208.71794871795,4208.71794871795,4203.589743589745,4189.743589743592,825.0,2047.0,2048.0,0.0,0.0,4.0,4.0,4.0,4.0,0.0,4.0,4.0,4.0,4.0,0.0,4.0,4.0,4.0,4.0,4.0,4.0
80.0,0.0,4178.46153846154,4601.538461538463,4280.512820512822,4190.256410256412,4267.692307692309,4187.692307692309,4241.538461538463,4201.538461538463,4190.769230769232,4185.641025641027,4199.487179487181,4205.641025641027,4197.435897435899,4184.102564102565,847.0,2047.0,2048.0,0.0,0.0,4.0,4.0,4.0,4.0,0.0,4.0,4.0,4.0,4.0,0.0,4.0,4.0,4.0,4.0,4.0,4.0
81.0,0.0,4184.102564102565,4609.23076923077,4297.94871794872,4193.846153846155,4259.487179487181,4185.641025641027,4227.179487179489,4184.615384615386,4186.666666666668,4183.589743589745,4192.307692307694,4205.128205128207,4188.71794871795,4177.435897435899,405.0,2047.0,2048.0,0.0,0.0,4.0,4.0,4.0,4.0,0.0,4.0,4.0,4.0,4.0,0.0,4.0,4.0,4.0,4.0,4.0,4.0
82.0,0.0,4187.692307692309,4607.179487179488,4201.0256410256425,4200.512820512822,4228.71794871795,4174.3589743589755,4171.282051282053,4168.20512820513,4182.051282051283,4182.564102564104,4197.435897435899,4208.20512820513,4195.384615384617,4175.384615384617,857.0,2047.0,2048.0,0.0,0.0,4.0,4.0,4.0,4.0,0.0,4.0,4.0,4.0,4.0,0.0,4.0,4.0,4.0,4.0,4.0,4.0
83.0,0.0,4181.0256410256425,4598.97435897436,4152.307692307694,4200.512820512822,4216.410256410258,4174.871794871797,4168.71794871795,4181.538461538463,4184.615384615386,4184.615384615386,4204.615384615386,4216.923076923078,4206.666666666668,4176.923076923078,825.0,2047.0,2048.0,0.0,0.0,4.0,4.0,4.0,4.0,0.0,4.0,4.0,4.0,4.0,0.0,4.0,4.0,4.0,4.0,4.0,4.0
84.0,0.0,4177.435897435899,4600.000000000002,4132.8205128205145,4201.0256410256425,4207.692307692309,4184.102564102565,4162.564102564104,4185.128205128207,4184.615384615386,4184.102564102565,4198.97435897436,4210.256410256412,4203.076923076925,4177.435897435899,847.0,2047.0,2048.0,0.0,0.0,4.0,4.0,4.0,4.0,0.0,4.0,4.0,4.0,4.0,0.0,4.0,4.0,4.0,4.0,4.0,4.0
85.0,0.0,4191.794871794873,4612.8205128205145,4108.71794871795,4205.128205128207,4206.666666666668,4184.615384615386,4138.97435897436,4180.512820512822,4185.128205128207,4184.615384615386,4203.076923076925,4209.23076923077,4201.538461538463,4183.076923076925,405.0,2047.0,2048.0,0.0,0.0,4.0,4.0,4.0,4.0,0.0,4.0,4.0,4.0,4.0,0.0,4.0,4.0,4.0,4.0,4.0,4.0
86.0,0.0,4194.3589743589755,4616.410256410258,4177.435897435899,4202.051282051283,4235.897435897437,4192.8205128205145,4194.3589743589755,4193.846153846155,4188.20512820513,4186.666666666668,4207.179487179489,4211.282051282053,4191.794871794873,4176.923076923078,857.0,2047.0,2048.0,0.0,0.0,4.0,4.0,4.0,4.0,0.0,4.0,4.0,4.0,4.0,0.0,4.0,4.0,4.0,4.0,4.0,4.0
87.0,0.0,4182.051282051283,4612.8205128205145,4301.0256410256425,4195.897435897437,4271.794871794873,4202.564102564104,4250.769230769232,4188.20512820513,4184.102564102565,4185.641025641027,4192.307692307694,4199.487179487181,4174.3589743589755,4153.846153846155,825.0,2047.0,2048.0,0.0,0.0,4.0,4.0,4.0,4.0,0.0,4.0,4.0,4.0,4.0,0.0,4.0,4.0,4.0,4.0,4.0,4.0
88.0,0.0,4189.743589743592,4621.0256410256425,4294.3589743589755,4200.000000000002,4254.871794871797,4189.743589743592,4205.128205128207,4162.564102564104,4177.435897435899,4184.615384615386,4189.23076923077,4202.564102564104,4178.46153846154,4157.94871794872,847.0,2047.0,2048.0,0.0,0.0,4.0,4.0,4.0,4.0,0.0,4.0,4.0,4.0,4.0,0.0,4.0,4.0,4.0,4.0,4.0,4.0
89.0,0.0,4202.564102564104,4628.20512820513,4128.71794871795,4205.641025641027,4191.794871794873,4178.97435897436,4140.000000000002,4176.923076923078,4185.128205128207,4186.153846153848,4200.512820512822,4208.71794871795,4193.333333333335,4182.564102564104,405.0,2047.0,2048.0,0.0,0.0,4.0,4.0,4.0,4.0,0.0,4.0,4.0,4.0,4.0,0.0,4.0,4.0,4.0,4.0,4.0,4.0
90.0,0.0,4191.794871794873,4617.435897435899,4044.615384615386,4203.589743589745,4180.512820512822,4190.769230769232,4146.666666666668,4206.153846153848,4198.97435897436,4186.153846153848,4204.102564102565,4206.666666666668,4195.897435897437,4180.000000000002,857.0,2047.0,2048.0,0.0,0.0,4.0,4.0,4.0,4.0,0.0,4.0,4.0,4.0,4.0,0.0,4.0,4.0,4.0,4.0,4.0,4.0
91.0,0.0,4173.333333333335,4604.615384615386,4175.384615384617,4195.897435897437,4239.487179487181,4191.794871794873,4196.923076923078,4188.71794871795,4190.256410256412,4184.615384615386,4198.46153846154,4206.153846153848,4187.179487179489,4159.487179487181,825.0,2047.0,2048.0,0.0,0.0,4.0,4.0,4.0,4.0,0.0,4.0,4.0,4.0,4.0,0.0,4.0,4.0,4.0,4.0,4.0,4.0
92.0,0.0,4177.94871794872,4609.743589743591,4320.512820512822,4197.435897435899,4274.871794871797,4183.589743589745,4232.8205128205145,4163.076923076925,4175.384615384617,4184.102564102565,4197.435897435899,4204.102564102565,4184.102564102565,4157.435897435899,847.0,2047.0,2048.0,0.0,0.0,4.0,4.0,4.0,4.0,0.0,4.0,4.0,4.0,4.0,0.0,4.0,4.0,4.0,4.0,4.0,4.0
93.0,0.0,4192.8205128205145,4616.923076923078,4244.102564102565,4205.641025641027,4233.846153846155,4191.282051282053,4203.589743589745,4176.923076923078,4184.615384615386,4184.615384615386,4202.051282051283,4212.307692307694,4193.333333333335,4173.333333333335,405.0,2047.0,2048.0,0.0,0.0,4.0,4.0,4.0,4.0,0.0,4.0,4.0,4.0,4.0,0.0,4.0,4.0,4.0,4.0,4.0,4.0
94.0,0.0,4181.538461538463,4607.692307692309,4027.1794871794887,4198.97435897436,4169.743589743592,4193.846153846155,4128.20512820513,4198.97435897436,4195.897435897437,4184.615384615386,4203.076923076925,4211.794871794873,4195.897435897437,4178.46153846154,857.0,2047.0,2048.0,0.0,0.0,4.0,4.0,4.0,4.0,0.0,4.0,4.0,4.0,4.0,0.0,4.0,4.0,4.0,4.0,4.0,4.0
95.0,0.0,4175.897435897437,4609.23076923077,4044.102564102566,4193.846153846155,4192.307692307694,4185.128205128207,4139.487179487181,4200.000000000002,4189.743589743592,4185.641025641027,4204.102564102565,4207.179487179489,4190.769230769232,4175.897435897437,825.0,2047.0,2048.0,0.0,0.0,4.0,4.0,4.0,4.0,0.0,4.0,4.0,4.0,4.0,0.0,4.0,4.0,4.0,4.0,4.0,4.0
96.0,0.0,4192.8205128205145,4624.615384615386,4315.384615384617,4207.692307692309,4288.71794871795,4190.769230769232,4243.076923076925,4188.71794871795,4187.179487179489,4185.128205128207,4200.000000000002,4210.256410256412,4184.102564102565,4172.8205128205145,847.0,2047.0,2048.0,0.0,0.0,4.0,4.0,4.0,4.0,0.0,4.0,4.0,4.0,4.0,0.0,4.0,4.0,4.0,4.0,4.0,4.0
97.0,0.0,4193.846153846155,4620.512820512822,4396.923076923078,4214.871794871797,4300.000000000002,4197.94871794872,4273.333333333335,4177.435897435899,4185.128205128207,4183.589743589745,4183.076923076925,4203.076923076925,4167.179487179489,4162.564102564104,405.0,2047.0,2048.0,0.0,0.0,4.0,4.0,4.0,4.0,0.0,4.0,4.0,4.0,4.0,0.0,4.0,4.0,4.0,4.0,4.0,4.0
98.0,0.0,4188.20512820513,4610.769230769232,4145.128205128207,4208.71794871795,4192.307692307694,4186.666666666668,4166.666666666668,4181.538461538463,4186.153846153848,4184.615384615386,4181.538461538463,4203.076923076925,4166.666666666668,4158.46153846154,857.0,2047.0,2048.0,0.0,0.0,4.0,4.0,4.0,4.0,0.0,4.0,4.0,4.0,4.0,0.0,4.0,4.0,4.0,4.0,4.0,4.0
99.0,0.0,4194.871794871797,4617.94871794872,3950.7692307692323,4213.846153846155,4129.23076923077,4181.0256410256425,4078.9743589743603,4191.282051282053,4189.23076923077,4185.128205128207,4192.8205128205145,4207.692307692309,4176.923076923078,4160.000000000002,825.0,2047.0,2048.0,0.0,0.0,4.0,4.0,4.0,4.0,0.0,4.0,4.0,4.0,4.0,0.0,4.0,4.0,4.0,4.0,4.0,4.0
100.0,0.0,4193.333333333335,4623.076923076925,4107.179487179489,4218.46153846154,4212.307692307694,4187.179487179489,4150.769230769232,4177.94871794872,4175.897435897437,4184.615384615386,4174.3589743589755,4198.97435897436,4152.8205128205145,4148.71794871795,847.0,2047.0,2048.0,0.0,0.0,4.0,4.0,4.0,4.0,0.0,4.0,4.0,4.0,4.0,0.0,4.0,4.0,4.0,4.0,4.0,4.0
101.0,0.0,4192.307692307694,4622.051282051283,4369.23076923077,4215.384615384617,4307.692307692309,4185.641025641027,4264.615384615386,4164.102564102565,4169.23076923077,4185.641025641027,4156.410256410258,4197.94871794872,4140.512820512822,4141.538461538463,405.0,2047.0,2048.0,0.0,0.0,4.0,4.0,4.0,4.0,0.0,4.0,4.0,4.0,4.0,0.0,4.0,4.0,4.0,4.0,4.0,4.0
102.0,0.0,4197.435897435899,4623.589743589745,4359.487179487181,4217.435897435899,4277.94871794872,4187.692307692309,4256.923076923078,4173.846153846155,4183.076923076925,4186.153846153848,4168.71794871795,4202.564102564104,4169.23076923077,4148.71794871795,857.0,2047.0,2048.0,0.0,0.0,4.0,4.0,4.0,4.0,0.0,4.0,4.0,4.0,4.0,0.0,4.0,4.0,4.0,4.0,4.0,4.0
103.0,0.0,4188.71794871795,4619.487179487181,4125.641025641027,4218.97435897436,4191.794871794873,4197.435897435899,4161.0256410256425,4188.20512820513,4185.641025641027,4185.128205128207,4175.897435897437,4205.641025641027,4171.282051282053,4152.307692307694,825.0,2047.0,2048.0,0.0,0.0,4.0,4.0,4.0,4.0,0.0,4.0,4.0,4.0,4.0,0.0,4.0,4.0,4.0,4.0,4.0,4.0
104.0,0.0,4179.487179487181,4612.8205128205145,4016.4102564102577,4213.846153846155,4170.256410256412,4192.307692307694,4124.102564102565,4189.23076923077,4181.0256410256425,4185.128205128207,4172.8205128205145,4202.564102564104,4150.769230769232,4147.692307692309,847.0,2047.0,2048.0,0.0,0.0,4.0,4.0,4.0,4.0,0.0,4.0,4.0,4.0,4.0,0.0,4.0,4.0,4.0,4.0,4.0,4.0
105.0,0.0,4189.23076923077,4614.871794871797,4160.512820512822,4212.307692307694,4230.256410256412,4184.615384615386,4177.435897435899,4178.97435897436,4184.615384615386,4186.153846153848,4171.282051282053,4204.615384615386,4155.897435897437,4146.153846153848,405.0,2047.0,2048.0,0.0,0.0,4.0,4.0,4.0,4.0,0.0,4.0,4.0,4.0,4.0,0.0,4.0,4.0,4.0,4.0,4.0,4.0
106.0,0.0,4194.871794871797,4619.487179487181,4317.435897435899,4216.923076923078,4281.0256410256425,4196.923076923078,4231.282051282053,4170.769230769232,4180.512820512822,4185.641025641027,4163.589743589745,4207.692307692309,4155.897435897437,4141.0256410256425,857.0,2047.0,2048.0,0.0,0.0,4.0,4.0,4.0,4.0,0.0,4.0,4.0,4.0,4.0,0.0,4.0,4.0,4.0,4.0,4.0,4.0
107.0,0.0,4178.97435897436,4609.23076923077,4290.769230769232,4212.307692307694,4257.435897435899,4202.564102564104,4235.897435897437,4170.769230769232,4170.256410256412,4185.128205128207,4156.410256410258,4198.46153846154,4143.076923076925,4134.3589743589755,825.0,2047.0,2048.0,0.0,0.0,4.0,4.0,4.0,4.0,0.0,4.0,4.0,4.0,4.0,0.0,4.0,4.0,4.0,4.0,4.0,4.0
108.0,0.0,4171.282051282053,4597.94871794872,4160.512820512822,4204.615384615386,4208.20512820513,4187.692307692309,4186.153846153848,4168.71794871795,4173.333333333335,4185.128205128207,4160.512820512822,4200.512820512822,4149.23076923077,4138.97435897436,847.0,2047.0,2048.0,0.0,0.0,4.0,4.0,4.0,4.0,0.0,4.0,4.0,4.0,4.0,0.0,4.0,4.0,4.0,4.0,4.0,4.0
109.0,0.0,4182.051282051283,4603.589743589745,4041.5384615384633,4210.769230769232,4175.384615384617,4183.076923076925,4114.3589743589755,4166.666666666668,4183.076923076925,4184.102564102565,4167.692307692309,4206.666666666668,4160.000000000002,4149.23076923077,405.0,2047.0,2048.0,0.0,0.0,4.0,4.0,4.0,4.0,0.0,4.0,4.0,4.0,4.0,0.0,4.0,4.0,4.0,4.0,4.0,4.0
110.0,0.0,4189.23076923077,4614.3589743589755,4041.5384615384633,4214.871794871797,4187.692307692309,4192.8205128205145,4112.307692307694,4178.46153846154,4186.666666666668,4183.589743589745,4171.794871794873,4205.128205128207,4157.94871794872,4151.282051282053,857.0,2047.0,2048.0,0.0,0.0,4.0,4.0,4.0,4.0,0.0,4.0,4.0,4.0,4.0,0.0,4.0,4.0,4.0,4.0,4.0,4.0
111.0,0.0,4184.615384615386,4611.282051282053,4224.615384615386,4204.102564102565,4255.897435897437,4201.0256410256425,4212.307692307694,4184.615384615386,4185.128205128207,4184.615384615386,4168.20512820513,4205.641025641027,4149.743589743592,4146.153846153848,825.0,2047.0,2048.0,0.0,0.0,4.0,4.0,4.0,4.0,0.0,4.0,4.0,4.0,4.0,0.0,4.0,4.0,4.0,4.0,4.0,4.0
112.0,0.0,4174.871794871797,4601.538461538463,4376.410256410258,4195.897435897437,4300.000000000002,4201.0256410256425,4279.487179487181,4176.923076923078,4180.000000000002,4184.615384615386,4161.0256410256425,4199.487179487181,4141.0256410256425,4140.000000000002,847.0,2047.0,2048.0,0.0,0.0,4.0,4.0,4.0,4.0,0.0,4.0,4.0,4.0,4.0,0.0,4.0,4.0,4.0,4.0,4.0,4.0
113.0,0.0,4179.487179487181,4600.512820512822,4268.71794871795,4200.512820512822,4250.256410256412,4191.282051282053,4214.871794871797,4166.666666666668,4173.333333333335,4183.589743589745,4155.897435897437,4200.512820512822,4136.410256410258,4137.435897435899,405.0,2047.0,2048.0,0.0,0.0,4.0,4.0,4.0,4.0,0.0,4.0,4.0,4.0,4.0,0.0,4.0,4.0,4.0,4.0,4.0,4.0
114.0,0.0,4188.71794871795,4603.589743589745,4038.46153846154,4210.256410256412,4166.153846153848,4183.589743589745,4114.3589743589755,4154.871794871797,4167.692307692309,4185.128205128207,4153.846153846155,4200.512820512822,4137.94871794872,4135.897435897437,857.0,2047.0,2048.0,0.0,0.0,4.0,4.0,4.0,4.0,0.0,4.0,4.0,4.0,4.0,0.0,4.0,4.0,4.0,4.0,4.0,4.0
115.0,0.0,4183.589743589745,4608.20512820513,4001.5384615384633,4214.3589743589755,4170.256410256412,4186.666666666668,4104.615384615386,4157.435897435899,4169.743589743592,4186.666666666668,4154.871794871797,4196.410256410258,4138.97435897436,4132.8205128205145,825.0,2047.0,2048.0,0.0,0.0,4.0,4.0,4.0,4.0,0.0,4.0,4.0,4.0,4.0,0.0,4.0,4.0,4.0,4.0,4.0,4.0
116.0,0.0,4172.8205128205145,4605.128205128207,4195.897435897437,4205.128205128207,4249.743589743592,4189.23076923077,4190.256410256412,4170.256410256412,4175.384615384617,4185.128205128207,4152.8205128205145,4197.94871794872,4136.923076923078,4128.20512820513,847.0,2047.0,2048.0,0.0,0.0,4.0,4.0,4.0,4.0,0.0,4.0,4.0,4.0,4.0,0.0,4.0,4.0,4.0,4.0,4.0,4.0
117.0,0.0,4172.8205128205145,4598.46153846154,4339.487179487181,4197.94871794872,4284.102564102565,4192.307692307694,4256.410256410258,4163.076923076925,4172.307692307694,4182.564102564104,4146.153846153848,4192.8205128205145,4136.410256410258,4132.307692307694,405.0,2047.0,2048.0,0.0,0.0,4.0,4.0,4.0,4.0,0.0,4.0,4.0,4.0,4.0,0.0,4.0,4.0,4.0,4.0,4.0,4.0
118.0,0.0,4188.20512820513,4602.051282051283,4258.46153846154,4212.307692307694,4242.051282051283,4200.512820512822,4218.46153846154,4152.8205128205145,4171.794871794873,4183.076923076925,4154.3589743589755,4198.46153846154,4145.128205128207,4151.794871794873,857.0,2047.0,2048.0,0.0,0.0,4.0,4.0,4.0,4.0,0.0,4.0,4.0,4.0,4.0,0.0,4.0,4.0,4.0,4.0,4.0,4.0
119.0,0.0,4193.846153846155,4605.128205128207,4071.7948717948734,4217.435897435899,4180.512820512822,4202.564102564104,4138.97435897436,4173.846153846155,4184.102564102565,4185.128205128207,4173.846153846155,4210.769230769232,4158.97435897436,4162.564102564104,825.0,2047.0,2048.0,0.0,0.0,4.0,4.0,4.0,4.0,0.0,4.0,4.0,4.0,4.0,0.0,4.0,4.0,4.0,4.0,4.0,4.0
120.0,0.0,4180.512820512822,4602.051282051283,4001.5384615384633,4202.051282051283,4166.666666666668,4198.97435897436,4124.615384615386,4201.0256410256425,4194.3589743589755,4185.641025641027,4173.846153846155,4208.71794871795,4155.897435897437,4155.897435897437,847.0,2047.0,2048.0,0.0,0.0,4.0,4.0,4.0,4.0,0.0,4.0,4.0,4.0,4.0,0.0,4.0,4.0,4.0,4.0,4.0,4.0
121.0,0.0,4174.871794871797,4600.512820512822,4149.23076923077,4194.871794871797,4230.769230769232,4200.000000000002,4195.897435897437,4193.333333333335,4184.102564102565,4184.102564102565,4160.512820512822,4206.666666666668,4139.487179487181,4151.282051282053,405.0,2047.0,2048.0,0.0,0.0,4.0,4.0,4.0,4.0,0.0,4.0,4.0,4.0,4.0,0.0,4.0,4.0,4.0,4.0,4.0,4.0
122.0,0.0,4183.076923076925,4597.94871794872,4358.46153846154,4200.512820512822,4303.589743589745,4197.435897435899,4267.179487179489,4168.71794871795,4170.769230769232,4182.564102564104,4159.487179487181,4201.538461538463,4142.051282051283,4149.743589743592,857.0,2047.0,2048.0,0.0,0.0,4.0,4.0,4.0,4.0,0.0,4.0,4.0,4.0,4.0,0.0,4.0,4.0,4.0,4.0,4.0,4.0
123.0,0.0,4185.128205128207,4590.256410256412,4331.282051282053,4205.641025641027,4276.410256410258,4187.692307692309,4242.564102564104,4170.769230769232,4174.871794871797,4183.076923076925,4164.102564102565,4201.538461538463,4154.871794871797,4146.153846153848,825.0,2047.0,2048.0,0.0,0.0,4.0,4.0,4.0,4.0,0.0,4.0,4.0,4.0,4.0,0.0,4.0,4.0,4.0,4.0,4.0,4.0
124.0,0.0,4174.871794871797,4581.0256410256425,4066.6666666666683,4203.076923076925,4167.692307692309,4182.564102564104,4136.410256410258,4188.71794871795,4183.076923076925,4185.128205128207,4160.000000000002,4204.102564102565,4147.692307692309,4143.076923076925,847.0,2047.0,2048.0,0.0,0.0,4.0,4.0,4.0,4.0,0.0,4.0,4.0,4.0,4.0,0.0,4.0,4.0,4.0,4.0,4.0,4.0
125.0,0.0,4176.923076923078,4577.435897435899,3947.692307692309,4201.0256410256425,4135.897435897437,4191.282051282053,4084.615384615386,4185.641025641027,4182.564102564104,4186.153846153848,4163.076923076925,4202.564102564104,4146.153846153848,4150.769230769232,405.0,2047.0,2048.0,0.0,0.0,4.0,4.0,4.0,4.0,0.0,4.0,4.0,4.0,4.0,0.0,4.0,4.0,4.0,4.0,4.0,4.0
126.0,0.0,4192.307692307694,4584.102564102565,4158.46153846154,4211.282051282053,4232.307692307694,4203.076923076925,4172.307692307694,4181.0256410256425,4181.0256410256425,4185.128205128207,4177.435897435899,4213.333333333335,4166.153846153848,4167.179487179489,857.0,2047.0,2048.0,0.0,0.0,4.0,4.0,4.0,4.0,0.0,4.0,4.0,4.0,4.0,0.0,4.0,4.0,4.0,4.0,4.0,4.0
127.0,0.0,4196.923076923078,4589.743589743592,4385.641025641027,4217.435897435899,4307.692307692309,4200.512820512822,4283.589743589745,4191.794871794873,4190.256410256412,4184.102564102565,4187.179487179489,4215.897435897437,4180.000000000002,4173.846153846155,825.0,2047.0,2048.0,0.0,0.0,4.0,4.0,4.0,4.0,0.0,4.0,4.0,4.0,4.0,0.0,4.0,4.0,4.0,4.0,4.0,4.0
128.0,0.0,4196.923076923078,4593.333333333335,4334.871794871797,4216.410256410258,4264.102564102565,4195.384615384617,4263.589743589745,4196.923076923078,4198.97435897436,4184.102564102565,4197.435897435899,4215.897435897437,4191.794871794873,4177.94871794872,847.0,2047.0,2048.0,0.0,0.0,4.0,4.0,4.0,4.0,0.0,4.0,4.0,4.0,4.0,0.0,4.0,4.0,4.0,4.0,4.0,4.0
0.0,0.0,4210.256410256412,4598.97435897436,4121.538461538463,4223.589743589745,4181.538461538463,4198.97435897436,4155.384615384617,4203.076923076925,4203.076923076925,4186.153846153848,4210.769230769232,4222.564102564104,4210.256410256412,4198.46153846154,693.0,2047.0,2048.0,0.0,0.0,4.0,4.0,4.0,4.0,0.0,4.0,4.0,4.0,4.0,0.0,4.0,4.0,4.0,4.0,4.0,4.0
1.0,0.0,4211.794871794873,4591.282051282053,4049.743589743591,4227.179487179489,4177.435897435899,4196.410256410258,4124.615384615386,4207.692307692309,4201.0256410256425,4186.153846153848,4205.128205128207,4216.410256410258,4204.615384615386,4202.051282051283,829.0,2047.0,2048.0,0.0,0.0,4.0,4.0,4.0,4.0,0.0,4.0,4.0,4.0,4.0,0.0,4.0,4.0,4.0,4.0,4.0,4.0
2.0,0.0,4200.000000000002,4583.076923076925,4190.769230769232,4216.410256410258,4237.435897435899,4192.307692307694,4196.923076923078,4193.333333333335,4189.743589743592,4183.589743589745,4188.71794871795,4213.846153846155,4182.051282051283,4179.487179487181,806.0,2047.0,2048.0,0.0,0.0,4.0,4.0,4.0,4.0,0.0,4.0,4.0,4.0,4.0,0.0,4.0,4.0,4.0,4.0,4.0,4.0
3.0,0.0,4200.512820512822,4593.333333333335,4316.410256410258,4213.846153846155,4265.641025641027,4198.97435897436,4250.769230769232,4181.0256410256425,4182.564102564104,4183.589743589745,4193.333333333335,4215.897435897437,4183.076923076925,4174.871794871797,793.0,2047.0,2048.0,0.0,0.0,4.0,4.0,4.0,4.0,0.0,4.0,4.0,4.0,4.0,0.0,4.0,4.0,4.0,4.0,4.0,4.0
4.0,0.0,4204.102564102565,4593.333333333335,4286.666666666668,4219.487179487181,4249.23076923077,4197.435897435899,4228.20512820513,4186.153846153848,4185.641025641027,4185.641025641027,4199.487179487181,4214.3589743589755,4195.897435897437,4184.102564102565,0.0,2047.0,2048.0,0.0,0.0,4.0,4.0,4.0,4.0,0.0,4.0,4.0,4.0,4.0,0.0,4.0,4.0,4.0,4.0,4.0,4.0
5.0,0.0,4197.435897435899,4577.435897435899,4183.589743589745,4216.410256410258,4218.46153846154,4188.71794871795,4180.000000000002,4187.692307692309,4187.179487179489,4185.641025641027,4191.282051282053,4212.307692307694,4197.435897435899,4181.0256410256425,785.0,2047.0,2048.0,0.0,0.0,4.0,4.0,4.0,4.0,0.0,4.0,4.0,4.0,4.0,0.0,4.0,4.0,4.0,4.0,4.0,4.0
6.0,0.0,4192.8205128205145,4576.923076923078,4077.435897435899,4211.282051282053,4185.128205128207,4193.846153846155,4132.8205128205145,4182.564102564104,4184.615384615386,4185.128205128207,4188.71794871795,4208.71794871795,4193.333333333335,4179.487179487181,806.0,2047.0,2048.0,0.0,0.0,4.0,4.0,4.0,4.0,0.0,4.0,4.0,4.0,4.0,0.0,4.0,4.0,4.0,4.0,4.0,4.0
7.0,0.0,4203.589743589745,4589.23076923077,4068.71794871795,4216.410256410258,4188.71794871795,4199.487179487181,4122.564102564104,4185.641025641027,4184.615384615386,4185.128205128207,4198.46153846154,4213.333333333335,4190.769230769232,4189.23076923077,819.0,2047.0,2048.0,0.0,0.0,4.0,4.0,4.0,4.0,0.0,4.0,4.0,4.0,4.0,0.0,4.0,4.0,4.0,4.0,4.0,4.0
8.0,0.0,4212.307692307694,4592.307692307694,4224.102564102565,4217.94871794872,4245.128205128207,4187.179487179489,4192.8205128205145,4188.71794871795,4184.615384615386,4184.615384615386,4196.923076923078,4214.3589743589755,4190.769230769232,4191.794871794873,646.0,2047.0,2048.0,0.0,0.0,4.0,4.0,4.0,4.0,0.0,4.0,4.0,4.0,4.0,0.0,4.0,4.0,4.0,4.0,4.0,4.0
9.0,0.0,4202.051282051283,4586.666666666668,4364.102564102565,4211.794871794873,4289.743589743592,4183.589743589745,4257.435897435899,4182.051282051283,4180.512820512822,4184.615384615386,4180.000000000002,4208.71794871795,4180.000000000002,4178.46153846154,0.0,2047.0,2048.0,0.0,0.0,4.0,4.0,4.0,4.0,0.0,4.0,4.0,4.0,4.0,0.0,4.0,4.0,4.0,4.0,4.0,4.0
10.0,0.0,4190.769230769232,4576.410256410258,4272.8205128205145,4211.794871794873,4246.153846153848,4193.846153846155,4221.0256410256425,4177.435897435899,4182.564102564104,4185.128205128207,4176.410256410258,4208.20512820513,4169.23076923077,4168.20512820513,857.0,2047.0,2048.0,0.0,0.0,4.0,4.0,4.0,4.0,0.0,4.0,4.0,4.0,4.0,0.0,4.0,4.0,4.0,4.0,4.0,4.0
11.0,0.0,4190.256410256412,4570.256410256412,4054.358974358976,4212.8205128205145,4167.692307692309,4191.282051282053,4138.97435897436,4179.487179487181,4185.641025641027,4185.128205128207,4184.615384615386,4204.102564102565,4172.8205128205145,4170.256410256412,825.0,2047.0,2048.0,0.0,0.0,4.0,4.0,4.0,4.0,0.0,4.0,4.0,4.0,4.0,0.0,4.0,4.0,4.0,4.0,4.0,4.0
12.0,0.0,4194.871794871797,4574.3589743589755,4015.8974358974374,4205.641025641027,4174.3589743589755,4189.23076923077,4127.179487179489,4185.128205128207,4183.076923076925,4185.641025641027,4185.641025641027,4205.128205128207,4172.8205128205145,4174.3589743589755,847.0,2047.0,2048.0,0.0,0.0,4.0,4.0,4.0,4.0,0.0,4.0,4.0,4.0,4.0,0.0,4.0,4.0,4.0,4.0,4.0,4.0
13.0,0.0,4192.307692307694,4573.333333333335,4198.97435897436,4200.000000000002,4246.153846153848,4200.000000000002,4209.743589743592,4188.71794871795,4184.615384615386,4187.179487179489,4182.051282051283,4203.076923076925,4166.666666666668,4168.20512820513,405.0,2047.0,2048.0,0.0,0.0,4.0,4.0,4.0,4.0,0.0,4.0,4.0,4.0,4.0,0.0,4.0,4.0,4.0,4.0,4.0,4.0
14.0,0.0,4186.666666666668,4566.666666666668,4338.97435897436,4203.076923076925,4278.97435897436,4207.179487179489,4268.20512820513,4181.0256410256425,4190.769230769232,4185.128205128207,4180.000000000002,4200.512820512822,4163.076923076925,4161.538461538463,857.0,2047.0,2048.0,0.0,0.0,4.0,4.0,4.0,4.0,0.0,4.0,4.0,4.0,4.0,0.0,4.0,4.0,4.0,4.0,4.0,4.0
15.0,0.0,4189.23076923077,4558.46153846154,4264.615384615386,4202.564102564104,4238.46153846154,4197.94871794872,4214.871794871797,4165.128205128207,4181.538461538463,4183.589743589745,4173.846153846155,4205.128205128207,4157.94871794872,4162.564102564104,825.0,2047.0,2048.0,0.0,0.0,4.0,4.0,4.0,4.0,0.0,4.0,4.0,4.0,4.0,0.0,4.0,4.0,4.0,4.0,4.0,4.0
16.0,0.0,4193.846153846155,4552.307692307694,4111.794871794873,4198.97435897436,4187.692307692309,4187.692307692309,4142.564102564104,4158.97435897436,4167.692307692309,4184.615384615386,4170.769230769232,4199.487179487181,4157.435897435899,4167.692307692309,0.0,2047.0,2048.0,0.0,0.0,4.0,4.0,4.0,4.0,0.0,4.0,4.0,4.0,4.0,0.0,4.0,4.0,4.0,4.0,4.0,4.0
17.0,0.0,4197.94871794872,4560.512820512822,4063.589743589745,4202.051282051283,4184.615384615386,4189.23076923077,4130.256410256412,4166.153846153848,4174.871794871797,4185.641025641027,4183.589743589745,4204.615384615386,4171.282051282053,4175.897435897437,0.0,2047.0,2048.0,0.0,0.0,4.0,4.0,4.0,4.0,0.0,4.0,4.0,4.0,4.0,0.0,4.0,4.0,4.0,4.0,4.0,4.0
18.0,0.0,4195.384615384617,4566.666666666668,4118.97435897436,4205.128205128207,4209.743589743592,4189.23076923077,4160.000000000002,4176.923076923078,4187.179487179489,4185.128205128207,4193.333333333335,4213.846153846155,4176.923076923078,4173.846153846155,0.0,2047.0,2048.0,0.0,0.0,4.0,4.0,4.0,4.0,0.0,4.0,4.0,4.0,4.0,0.0,4.0,4.0,4.0,4.0,4.0,4.0
19.0,0.0,4183.589743589745,4556.410256410258,4247.692307692309,4201.538461538463,4256.410256410258,4185.128205128207,4223.589743589745,4182.564102564104,4183.589743589745,4184.615384615386,4181.538461538463,4203.589743589745,4165.641025641027,4161.538461538463,0.0,2047.0,2048.0,0.0,0.0,4.0,4.0,4.0,4.0,0.0,4.0,4.0,4.0,4.0,0.0,4.0,4.0,4.0,4.0,4.0,4.0
20.0,0.0,4182.051282051283,4550.769230769232,4348.20512820513,4201.0256410256425,4283.589743589745,4190.256410256412,4257.435897435899,4182.051282051283,4181.0256410256425,4185.641025641027,4171.794871794873,4201.538461538463,4164.615384615386,4161.538461538463,0.0,2047.0,2048.0,0.0,0.0,4.0,4.0,4.0,4.0,0.0,4.0,4.0,4.0,4.0,0.0,4.0,4.0,4.0,4.0,4.0,4.0
21.0,0.0,4191.282051282053,4551.794871794873,4228.20512820513,4205.128205128207,4223.076923076925,4200.512820512822,4197.94871794872,4180.512820512822,4186.666666666668,4186.153846153848,4181.0256410256425,4205.641025641027,4173.333333333335,4170.769230769232,0.0,2047.0,2048.0,0.0,0.0,4.0,4.0,4.0,4.0,0.0,4.0,4.0,4.0,4.0,0.0,4.0,4.0,4.0,4.0,4.0,4.0
22.0,0.0,4187.692307692309,4541.538461538463,4001.5384615384633,4198.97435897436,4150.256410256412,4201.0256410256425,4116.410256410258,4183.076923076925,4186.153846153848,4185.128205128207,4183.076923076925,4203.076923076925,4165.128205128207,4167.692307692309,0.0,2047.0,2048.0,0.0,0.0,4.0,4.0,4.0,4.0,0.0,4.0,4.0,4.0,4.0,0.0,4.0,4.0,4.0,4.0,4.0,4.0
23.0,0.0,4182.564102564104,4532.307692307694,4015.384615384617,4193.846153846155,4176.410256410258,4196.923076923078,4127.692307692309,4190.769230769232,4189.23076923077,4184.615384615386,4182.051282051283,4201.0256410256425,4164.615384615386,4171.282051282053,0.0,2047.0,2048.0,0.0,0.0,4.0,4.0,4.0,4.0,0.0,4.0,4.0,4.0,4.0,0.0,4.0,4.0,4.0,4.0,4.0,4.0
24.0,0.0,4191.794871794873,4539.487179487181,4270.769230769232,4198.46153846154,4265.128205128207,4198.46153846154,4232.307692307694,4199.487179487181,4200.000000000002,4186.153846153848,4203.076923076925,4206.666666666668,4189.23076923077,4188.20512820513,0.0,2047.0,2048.0,0.0,0.0,4.0,4.0,4.0,4.0,0.0,4.0,4.0,4.0,4.0,0.0,4.0,4.0,4.0,4.0,4.0,4.0
25.0,0.0,4183.589743589745,4539.487179487181,4389.23076923077,4194.3589743589755,4292.8205128205145,4204.102564102565,4283.076923076925,4187.179487179489,4188.20512820513,4186.666666666668,4195.897435897437,4208.71794871795,4178.46153846154,4174.871794871797,0.0,2047.0,2048.0,0.0,0.0,4.0,4.0,4.0,4.0,0.0,4.0,4.0,4.0,4.0,0.0,4.0,4.0,4.0,4.0,4.0,4.0
26.0,0.0,4164.615384615386,4531.282051282053,4219.487179487181,4189.23076923077,4224.102564102565,4202.051282051283,4206.666666666668,4170.769230769232,4173.333333333335,4184.102564102565,4163.589743589745,4196.410256410258,4147.692307692309,4152.8205128205145,0.0,2047.0,2048.0,0.0,0.0,4.0,4.0,4.0,4.0,0.0,4.0,4.0,4.0,4.0,0.0,4.0,4.0,4.0,4.0,4.0,4.0
27.0,0.0,4184.102564102565,4536.410256410258,4052.3076923076937,4198.97435897436,4171.282051282053,4188.71794871795,4125.128205128207,4180.000000000002,4183.589743589745,4184.615384615386,4182.051282051283,4206.153846153848,4177.435897435899,4175.384615384617,0.0,2047.0,2048.0,0.0,0.0,4.0,4.0,4.0,4.0,0.0,4.0,4.0,4.0,4.0,0.0,4.0,4.0,4.0,4.0,4.0,4.0
28.0,0.0,4206.153846153848,4543.589743589745,4105.641025641027,4204.102564102565,4202.564102564104,4180.512820512822,4145.128205128207,4190.256410256412,4192.307692307694,4186.153846153848,4216.410256410258,4220.000000000002,4215.384615384617,4198.97435897436,0.0,2047.0,2048.0,0.0,0.0,4.0,4.0,4.0,4.0,0.0,4.0,4.0,4.0,4.0,0.0,4.0,4.0,4.0,4.0,4.0,4.0
29.0,0.0,4188.20512820513,4538.46153846154,4245.128205128207,4195.897435897437,4254.3589743589755,4191.794871794873,4212.8205128205145,4189.23076923077,4190.769230769232,4185.641025641027,4202.564102564104,4207.179487179489,4195.384615384617,4181.0256410256425,0.0,2047.0,2048.0,0.0,0.0,4.0,4.0,4.0,4.0,0.0,4.0,4.0,4.0,4.0,0.0,4.0,4.0,4.0,4.0,4.0,4.0
30.0,0.0,4185.641025641027,4539.487179487181,4281.0256410256425,4197.94871794872,4252.307692307694,4206.153846153848,4230.769230769232,4196.923076923078,4198.97435897436,4184.615384615386,4192.307692307694,4207.179487179489,4178.97435897436,4173.846153846155,0.0,2047.0,2048.0,0.0,0.0,4.0,4.0,4.0,4.0,0.0,4.0,4.0,4.0,4.0,0.0,4.0,4.0,4.0,4.0,4.0,4.0
31.0,0.0,4207.179487179489,4549.23076923077,4197.94871794872,4204.615384615386,4212.8205128205145,4200.000000000002,4189.23076923077,4203.589743589745,4203.076923076925,4185.128205128207,4203.076923076925,4213.333333333335,4192.307692307694,4187.692307692309,0.0,2047.0,2048.0,0.0,0.0,4.0,4.0,4.0,4.0,0.0,4.0,4.0,4.0,4.0,0.0,4.0,4.0,4.0,4.0,4.0,4.0
32.0,0.0,4201.0256410256425,4543.076923076925,4144.102564102565,4196.410256410258,4205.641025641027,4188.20512820513,4165.128205128207,4190.256410256412,4189.743589743592,4185.641025641027,4193.333333333335,4208.20512820513,4188.20512820513,4178.97435897436,0.0,2047.0,2048.0,0.0,0.0,4.0,4.0,4.0,4.0,0.0,4.0,4.0,4.0,4.0,0.0,4.0,4.0,4.0,4.0,4.0,4.0
33.0,0.0,4184.615384615386,4530.256410256412,4196.410256410258,4190.256410256412,4232.8205128205145,4185.128205128207,4187.692307692309,4172.8205128205145,4179.487179487181,4185.128205128207,4180.000000000002,4201.538461538463,4180.512820512822,4170.769230769232,0.0,2047.0,2048.0,0.0,0.0,4.0,4.0,4.0,4.0,0.0,4.0,4.0,4.0,4.0,0.0,4.0,4.0,4.0,4.0,4.0,4.0
34.0,0.0,4188.71794871795,4530.256410256412,4238.97435897436,4197.435897435899,4238.97435897436,4188.71794871795,4198.46153846154,4167.179487179489,4179.487179487181,4185.641025641027,4184.615384615386,4201.0256410256425,4190.256410256412,4181.538461538463,0.0,2047.0,2048.0,0.0,0.0,4.0,4.0,4.0,4.0,0.0,4.0,4.0,4.0,4.0,0.0,4.0,4.0,4.0,4.0,4.0,4.0
35.0,0.0,4195.384615384617,4534.871794871797,4161.538461538463,4201.0256410256425,4208.71794871795,4196.410256410258,4163.076923076925,4178.97435897436,4185.641025641027,4186.153846153848,4189.743589743592,4208.20512820513,4193.333333333335,4181.0256410256425,0.0,2047.0,2048.0,0.0,0.0,4.0,4.0,4.0,4.0,0.0,4.0,4.0,4.0,4.0,0.0,4.0,4.0,4.0,4.0,4.0,4.0
36.0,0.0,4186.666666666668,4535.897435897437,4062.564102564104,4195.384615384617,4184.615384615386,4196.923076923078,4133.333333333335,4191.282051282053,4188.71794871795,4184.615384615386,4190.769230769232,4202.564102564104,4187.179487179489,4172.8205128205145,0.0,2047.0,2048.0,0.0,0.0,4.0,4.0,4.0,4.0,0.0,4.0,4.0,4.0,4.0,0.0,4.0,4.0,4.0,4.0,4.0,4.0
37.0,0.0,4187.692307692309,4542.051282051283,4146.153846153848,4200.512820512822,4222.051282051283,4192.8205128205145,4168.20512820513,4182.051282051283,4179.487179487181,4184.615384615386,4186.153846153848,4198.46153846154,4181.0256410256425,4175.384615384617,0.0,2047.0,2048.0,0.0,0.0,4.0,4.0,4.0,4.0,0.0,4.0,4.0,4.0,4.0,0.0,4.0,4.0,4.0,4.0,4.0,4.0
38.0,0.0,4198.97435897436,4542.051282051283,4318.97435897436,4206.153846153848,4274.871794871797,4196.410256410258,4235.384615384617,4180.000000000002,4185.128205128207,4184.102564102565,4185.641025641027,4206.153846153848,4174.871794871797,4179.487179487181,0.0,2047.0,2048.0,0.0,0.0,4.0,4.0,4.0,4.0,0.0,4.0,4.0,4.0,4.0,0.0,4.0,4.0,4.0,4.0,4.0,4.0
39.0,0.0,4194.871794871797,4532.8205128205145,4296.410256410258,4196.923076923078,4251.794871794873,4195.897435897437,4238.46153846154,4196.410256410258,4203.076923076925,4184.102564102565,4191.794871794873,4203.589743589745,4175.384615384617,4178.97435897436,0.0,2047.0,2048.0,0.0,0.0,4.0,4.0,4.0,4.0,0.0,4.0,4.0,4.0,4.0,0.0,4.0,4.0,4.0,4.0,4.0,4.0
40.0,0.0,4186.666666666668,4535.897435897437,4105.641025641027,4196.410256410258,4182.564102564104,4184.102564102565,4154.871794871797,4192.8205128205145,4195.897435897437,4184.615384615386,4190.256410256412,4203.589743589745,4182.564102564104,4184.102564102565,0.0,2047.0,2048.0,0.0,0.0,4.0,4.0,4.0,4.0,0.0,4.0,4.0,4.0,4.0,0.0,4.0,4.0,4.0,4.0,4.0,4.0
41.0,0.0,4185.641025641027,4541.0256410256425,4016.9230769230785,4201.538461538463,4165.128205128207,4181.0256410256425,4102.564102564104,4171.282051282053,4181.538461538463,4184.102564102565,4186.153846153848,4204.102564102565,4188.20512820513,4183.589743589745,0.0,2047.0,2048.0,0.0,0.0,4.0,4.0,4.0,4.0,0.0,4.0,4.0,4.0,4.0,0.0,4.0,4.0,4.0,4.0,4.0,4.0
42.0,0.0,4180.512820512822,4529.23076923077,4143.589743589745,4189.23076923077,4225.128205128207,4189.743589743592,4170.256410256412,4165.641025641027,4183.076923076925,4183.589743589745,4183.076923076925,4199.487179487181,4179.487179487181,4169.23076923077,0.0,2047.0,2048.0,0.0,0.0,4.0,4.0,4.0,4.0,0.0,4.0,4.0,4.0,4.0,0.0,4.0,4.0,4.0,4.0,4.0,4.0
43.0,0.0,4173.333333333335,4522.564102564104,4304.102564102565,4181.538461538463,4273.846153846155,4191.794871794873,4249.743589743592,4169.743589743592,4176.923076923078,4184.615384615386,4174.3589743589755,4198.46153846154,4166.666666666668,4160.000000000002,0.0,2047.0,2048.0,0.0,0.0,4.0,4.0,4.0,4.0,0.0,4.0,4.0,4.0,4.0,0.0,4.0,4.0,4.0,4.0,4.0,4.0
44.0,0.0,4178.97435897436,4528.71794871795,4281.0256410256425,4194.3589743589755,4246.666666666668,4188.20512820513,4222.051282051283,4172.307692307694,4170.256410256412,4186.153846153848,4174.871794871797,4197.435897435899,4166.666666666668,4161.0256410256425,0.0,2047.0,2048.0,0.0,0.0,4.0,4.0,4.0,4.0,0.0,4.0,4.0,4.0,4.0,0.0,4.0,4.0,4.0,4.0,4.0,4.0
45.0,0.0,4190.769230769232,4529.23076923077,4133.333333333335,4202.564102564104,4196.923076923078,4186.666666666668,4153.333333333335,4174.871794871797,4182.564102564104,4185.641025641027,4187.179487179489,4203.589743589745,4172.307692307694,4169.743589743592,0.0,2047.0,2048.0,0.0,0.0,4.0,4.0,4.0,4.0,0.0,4.0,4.0,4.0,4.0,0.0,4.0,4.0,4.0,4.0,4.0,4.0
46.0,0.0,4188.20512820513,4528.71794871795,4046.1538461538476,4198.46153846154,4175.897435897437,4187.692307692309,4129.743589743592,4181.538461538463,4191.282051282053,4185.128205128207,4185.128205128207,4202.051282051283,4169.743589743592,4177.435897435899,0.0,2047.0,2048.0,0.0,0.0,4.0,4.0,4.0,4.0,0.0,4.0,4.0,4.0,4.0,0.0,4.0,4.0,4.0,4.0,4.0,4.0
47.0,0.0,4187.692307692309,4540.512820512822,4094.8717948717963,4196.410256410258,4197.435897435899,4184.102564102565,4144.102564102565,4180.000000000002,4182.564102564104,4185.128205128207,4177.94871794872,4195.897435897437,4171.794871794873,4182.051282051283,0.0,2047.0,2048.0,0.0,0.0,4.0,4.0,4.0,4.0,0.0,4.0,4.0,4.0,4.0,0.0,4.0,4.0,4.0,4.0,4.0,4.0
48.0,0.0,4199.487179487181,4546.153846153848,4253.846153846155,4199.487179487181,4255.897435897437,4185.641025641027,4204.102564102565,4178.46153846154,4187.179487179489,4185.641025641027,4187.179487179489,4203.589743589745,4185.641025641027,4188.20512820513,0.0,2047.0,2048.0,0.0,0.0,4.0,4.0,4.0,4.0,0.0,4.0,4.0,4.0,4.0,0.0,4.0,4.0,4.0,4.0,4.0,4.0
49.0,0.0,4196.923076923078,4529.743589743592,4358.46153846154,4198.46153846154,4284.615384615386,4198.97435897436,4269.23076923077,4189.23076923077,4198.46153846154,4185.641025641027,4188.71794871795,4203.589743589745,4185.128205128207,4181.0256410256425,0.0,2047.0,2048.0,0.0,0.0,4.0,4.0,4.0,4.0,0.0,4.0,4.0,4.0,4.0,0.0,4.0,4.0,4.0,4.0,4.0,4.0
50.0,0.0,4189.23076923077,4518.97435897436,4237.94871794872,4197.94871794872,4227.692307692309,4196.923076923078,4215.384615384617,4187.179487179489,4193.333333333335,4185.128205128207,4183.589743589745,4202.564102564104,4180.000000000002,4171.282051282053,0.0,2047.0,2048.0,0.0,0.0,4.0,4.0,4.0,4.0,0.0,4.0,4.0,4.0,4.0,0.0,4.0,4.0,4.0,4.0,4.0,4.0
51.0,0.0,4188.71794871795,4524.102564102565,4012.3076923076937,4202.564102564104,4148.71794871795,4182.564102564104,4088.71794871795,4176.923076923078,4182.051282051283,4186.153846153848,4193.846153846155,4207.179487179489,4187.692307692309,4179.487179487181,0.0,2047.0,2048.0,0.0,0.0,4.0,4.0,4.0,4.0,0.0,4.0,4.0,4.0,4.0,0.0,4.0,4.0,4.0,4.0,4.0,4.0
52.0,0.0,4182.564102564104,4518.97435897436,4009.743589743591,4195.897435897437,4168.20512820513,4184.615384615386,4095.384615384617,4186.666666666668,4182.564102564104,4185.641025641027,4197.94871794872,4206.666666666668,4187.692307692309,4183.589743589745,0.0,2047.0,2048.0,0.0,0.0,4.0,4.0,4.0,4.0,0.0,4.0,4.0,4.0,4.0,0.0,4.0,4.0,4.0,4.0,4.0,4.0
53.0,0.0,4186.153846153848,4513.846153846155,4261.0256410256425,4186.666666666668,4265.128205128207,4191.282051282053,4231.282051282053,4198.97435897436,4192.8205128205145,4185.128205128207,4197.435897435899,4208.20512820513,4186.153846153848,4181.538461538463,0.0,2047.0,2048.0,0.0,0.0,4.0,4.0,4.0,4.0,0.0,4.0,4.0,4.0,4.0,0.0,4.0,4.0,4.0,4.0,4.0,4.0
54.0,0.0,4202.051282051283,4527.692307692309,4404.102564102565,4194.3589743589755,4296.410256410258,4187.692307692309,4286.153846153848,4195.384615384617,4195.384615384617,4185.128205128207,4208.71794871795,4208.20512820513,4200.000000000002,4189.743589743592,0.0,2047.0,2048.0,0.0,0.0,4.0,4.0,4.0,4.0,0.0,4.0,4.0,4.0,4.0,0.0,4.0,4.0,4.0,4.0,4.0,4.0
55.0,0.0,4204.102564102565,4534.871794871797,4254.871794871797,4205.641025641027,4228.20512820513,4184.102564102565,4207.179487179489,4192.307692307694,4190.769230769232,4185.128205128207,4206.666666666668,4209.23076923077,4210.256410256412,4198.97435897436,0.0,2047.0,2048.0,0.0,0.0,4.0,4.0,4.0,4.0,0.0,4.0,4.0,4.0,4.0,0.0,4.0,4.0,4.0,4.0,4.0,4.0
56.0,0.0,4191.794871794873,4520.000000000002,4048.71794871795,4201.0256410256425,4166.153846153848,4184.615384615386,4136.923076923078,4194.871794871797,4187.692307692309,4186.666666666668,4188.71794871795,4204.102564102565,4198.46153846154,4190.256410256412,0.0,2047.0,2048.0,0.0,0.0,4.0,4.0,4.0,4.0,0.0,4.0,4.0,4.0,4.0,0.0,4.0,4.0,4.0,4.0,4.0,4.0
57.0,0.0,4190.256410256412,4513.846153846155,4067.692307692309,4193.333333333335,4190.256410256412,4184.102564102565,4155.384615384617,4191.282051282053,4189.23076923077,4186.666666666668,4186.153846153848,4200.000000000002,4185.128205128207,4175.384615384617,0.0,2047.0,2048.0,0.0,0.0,4.0,4.0,4.0,4.0,0.0,4.0,4.0,4.0,4.0,0.0,4.0,4.0,4.0,4.0,4.0,4.0
58.0,0.0,4195.897435897437,4521.538461538463,4247.179487179489,4194.871794871797,4249.23076923077,4185.128205128207,4215.897435897437,4188.20512820513,4186.666666666668,4185.128205128207,4195.384615384617,4209.23076923077,4190.256410256412,4177.94871794872,0.0,2047.0,2048.0,0.0,0.0,4.0,4.0,4.0,4.0,0.0,4.0,4.0,4.0,4.0,0.0,4.0,4.0,4.0,4.0,4.0,4.0
59.0,0.0,4196.923076923078,4526.153846153848,4306.666666666668,4198.97435897436,4253.333333333335,4192.307692307694,4234.3589743589755,4189.23076923077,4185.128205128207,4185.128205128207,4197.94871794872,4207.179487179489,4204.102564102565,4189.743589743592,0.0,2047.0,2048.0,0.0,0.0,4.0,4.0,4.0,4.0,0.0,4.0,4.0,4.0,4.0,0.0,4.0,4.0,4.0,4.0,4.0,4.0
60.0,0.0,4194.871794871797,4520.000000000002,4197.94871794872,4199.487179487181,4216.410256410258,4196.923076923078,4194.3589743589755,4198.46153846154,4192.8205128205145,4187.179487179489,4193.333333333335,4202.051282051283,4200.000000000002,4188.71794871795,0.0,2047.0,2048.0,0.0,0.0,4.0,4.0,4.0,4.0,0.0,4.0,4.0,4.0,4.0,0.0,4.0,4.0,4.0,4.0,4.0,4.0
61.0,0.0,4184.615384615386,4505.128205128207,4118.46153846154,4192.8205128205145,4198.46153846154,4190.256410256412,4168.20512820513,4198.46153846154,4194.3589743589755,4185.641025641027,4180.512820512822,4203.076923076925,4178.97435897436,4175.384615384617,0.0,2047.0,2048.0,0.0,0.0,4.0,4.0,4.0,4.0,0.0,4.0,4.0,4.0,4.0,0.0,4.0,4.0,4.0,4.0,4.0,4.0
62.0,0.0,4180.000000000002,4504.615384615386,4169.23076923077,4187.179487179489,4220.000000000002,4181.538461538463,4184.615384615386,4177.435897435899,4181.0256410256425,4184.102564102565,4176.923076923078,4200.000000000002,4177.94871794872,4169.23076923077,0.0,2047.0,2048.0,0.0,0.0,4.0,4.0,4.0,4.0,0.0,4.0,4.0,4.0,4.0,0.0,4.0,4.0,4.0,4.0,4.0,4.0
63.0,0.0,4185.128205128207,4510.769230769232,4226.666666666668,4187.692307692309,4238.46153846154,4184.102564102565,4203.076923076925,4164.102564102565,4170.769230769232,4185.641025641027,4181.538461538463,4201.0256410256425,4185.128205128207,4168.71794871795,0.0,2047.0,2048.0,0.0,0.0,4.0,4.0,4.0,4.0,0.0,4.0,4.0,4.0,4.0,0.0,4.0,4.0,4.0,4.0,4.0,4.0
64.0,0.0,4186.153846153848,4499.487179487181,4189.23076923077,4187.692307692309,4219.487179487181,4187.692307692309,4201.0256410256425,4180.000000000002,4185.641025641027,4185.641025641027,4178.97435897436,4197.435897435899,4183.076923076925,4168.71794871795,693.0,2047.0,2048.0,0.0,0.0,4.0,4.0,4.0,4.0,0.0,4.0,4.0,4.0,4.0,0.0,4.0,4.0,4.0,4.0,4.0,4.0
65.0,0.0,4198.46153846154,4504.615384615386,4156.410256410258,4196.410256410258,4207.179487179489,4187.179487179489,4182.564102564104,4199.487179487181,4202.051282051283,4185.128205128207,4185.641025641027,4205.128205128207,4191.794871794873,4185.128205128207,829.0,2047.0,2048.0,0.0,0.0,4.0,4.0,4.0,4.0,0.0,4.0,4.0,4.0,4.0,0.0,4.0,4.0,4.0,4.0,4.0,4.0
66.0,0.0,4213.333333333335,4527.692307692309,4191.794871794873,4208.71794871795,4222.564102564104,4186.666666666668,4172.8205128205145,4186.153846153848,4187.179487179489,4185.128205128207,4195.897435897437,4212.8205128205145,4197.435897435899,4197.435897435899,806.0,2047.0,2048.0,0.0,0.0,4.0,4.0,4.0,4.0,0.0,4.0,4.0,4.0,4.0,0.0,4.0,4.0,4.0,4.0,4.0,4.0
67.0,0.0,4191.282051282053,4510.769230769232,4213.846153846155,4196.923076923078,4232.307692307694,4184.102564102565,4183.589743589745,4158.46153846154,4169.743589743592,4184.615384615386,4177.435897435899,4196.410256410258,4176.410256410258,4181.0256410256425,818.0,2047.0,2048.0,0.0,0.0,4.0,4.0,4.0,4.0,0.0,4.0,4.0,4.0,4.0,0.0,4.0,4.0,4.0,4.0,4.0,4.0
68.0,0.0,4168.20512820513,4473.846153846155,4186.153846153848,4172.8205128205145,4222.051282051283,4184.615384615386,4191.794871794873,4170.769230769232,4182.051282051283,4184.615384615386,4163.076923076925,4194.3589743589755,4167.692307692309,4166.666666666668,0.0,2047.0,2048.0,0.0,0.0,4.0,4.0,4.0,4.0,0.0,4.0,4.0,4.0,4.0,0.0,4.0,4.0,4.0,4.0,4.0,4.0
69.0,0.0,4180.000000000002,4476.923076923078,4158.46153846154,4175.384615384617,4210.769230769232,4188.20512820513,4186.666666666668,4195.384615384617,4192.307692307694,4185.641025641027,4179.487179487181,4202.051282051283,4186.666666666668,4177.435897435899,785.0,2047.0,2048.0,0.0,0.0,4.0,4.0,4.0,4.0,0.0,4.0,4.0,4.0,4.0,0.0,4.0,4.0,4.0,4.0,4.0,4.0
70.0,0.0,4197.435897435899,4498.97435897436,4170.256410256412,4196.923076923078,4215.897435897437,4188.71794871795,4181.0256410256425,4180.512820512822,4181.0256410256425,4186.153846153848,4185.128205128207,4202.564102564104,4191.282051282053,4185.128205128207,806.0,2047.0,2048.0,0.0,0.0,4.0,4.0,4.0,4.0,0.0,4.0,4.0,4.0,4.0,0.0,4.0,4.0,4.0,4.0,4.0,4.0
71.0,0.0,4196.923076923078,4496.410256410258,4196.410256410258,4202.564102564104,4221.538461538463,4185.128205128207,4181.0256410256425,4170.256410256412,4181.538461538463,4186.666666666668,4179.487179487181,4204.102564102565,4184.615384615386,4178.46153846154,819.0,2047.0,2048.0,0.0,0.0,4.0,4.0,4.0,4.0,0.0,4.0,4.0,4.0,4.0,0.0,4.0,4.0,4.0,4.0,4.0,4.0
72.0,0.0,4193.846153846155,4486.666666666668,4197.435897435899,4196.923076923078,4217.94871794872,4183.589743589745,4188.71794871795,4184.615384615386,4191.282051282053,4184.615384615386,4183.589743589745,4200.000000000002,4189.23076923077,4176.923076923078,646.0,2047.0,2048.0,0.0,0.0,4.0,4.0,4.0,4.0,0.0,4.0,4.0,4.0,4.0,0.0,4.0,4.0,4.0,4.0,4.0,4.0
73.0,0.0,4204.102564102565,4499.487179487181,4186.666666666668,4200.512820512822,4217.94871794872,4186.153846153848,4184.615384615386,4190.769230769232,4187.692307692309,4184.615384615386,4187.692307692309,4203.589743589745,4195.384615384617,4189.743589743592,0.0,2047.0,2048.0,0.0,0.0,4.0,4.0,4.0,4.0,0.0,4.0,4.0,4.0,4.0,0.0,4.0,4.0,4.0,4.0,4.0,4.0
74.0,0.0,4216.410256410258,4514.871794871797,4171.794871794873,4205.641025641027,4212.307692307694,4187.179487179489,4163.589743589745,4188.71794871795,4186.153846153848,4187.179487179489,4195.384615384617,4211.282051282053,4202.564102564104,4201.0256410256425,857.0,2047.0,2048.0,0.0,0.0,4.0,4.0,4.0,4.0,0.0,4.0,4.0,4.0,4.0,0.0,4.0,4.0,4.0,4.0,4.0,4.0
75.0,0.0,4206.153846153848,4500.000000000002,4176.410256410258,4196.410256410258,4217.94871794872,4184.615384615386,4173.846153846155,4189.743589743592,4193.846153846155,4186.153846153848,4202.051282051283,4212.307692307694,4208.20512820513,4195.384615384617,825.0,2047.0,2048.0,0.0,0.0,4.0,4.0,4.0,4.0,0.0,4.0,4.0,4.0,4.0,0.0,4.0,4.0,4.0,4.0,4.0,4.0
76.0,0.0,4185.641025641027,4478.46153846154,4214.871794871797,4186.666666666668,4235.897435897437,4184.615384615386,4210.256410256412,4189.743589743592,4195.897435897437,4183.589743589745,4196.923076923078,4210.769230769232,4206.666666666668,4187.692307692309,847.0,2047.0,2048.0,0.0,0.0,4.0,4.0,4.0,4.0,0.0,4.0,4.0,4.0,4.0,0.0,4.0,4.0,4.0,4.0,4.0,4.0
77.0,0.0,4182.051282051283,4475.897435897437,4210.769230769232,4189.23076923077,4225.641025641027,4187.179487179489,4205.641025641027,4186.666666666668,4189.743589743592,4184.102564102565,4187.692307692309,4205.128205128207,4200.000000000002,4182.564102564104,405.0,2047.0,2048.0,0.0,0.0,4.0,4.0,4.0,4.0,0.0,4.0,4.0,4.0,4.0,0.0,4.0,4.0,4.0,4.0,4.0,4.0
78.0,0.0,4194.871794871797,4480.512820512822,4143.076923076925,4195.897435897437,4201.0256410256425,4186.666666666668,4167.692307692309,4186.153846153848,4188.20512820513,4185.641025641027,4192.307692307694,4209.23076923077,4197.435897435899,4183.076923076925,857.0,2047.0,2048.0,0.0,0.0,4.0,4.0,4.0,4.0,0.0,4.0,4.0,4.0,4.0,0.0,4.0,4.0,4.0,4.0,4.0,4.0
79.0,0.0,4205.128205128207,4482.051282051283,4123.076923076925,4198.46153846154,4201.0256410256425,4183.589743589745,4163.589743589745,4191.794871794873,4193.846153846155,4185.128205128207,4206.666666666668,4214.3589743589755,4207.179487179489,4192.307692307694,825.0,2047.0,2048.0,0.0,0.0,4.0,4.0,4.0,4.0,0.0,4.0,4.0,4.0,4.0,0.0,4.0,4.0,4.0,4.0,4.0,4.0
80.0,0.0,4209.743589743592,4483.076923076925,4205.128205128207,4199.487179487181,4229.23076923077,4185.641025641027,4201.0256410256425,4199.487179487181,4194.871794871797,4185.128205128207,4213.333333333335,4214.871794871797,4218.97435897436,4201.0256410256425,847.0,2047.0,2048.0,0.0,0.0,4.0,4.0,4.0,4.0,0.0,4.0,4.0,4.0,4.0,0.0,4.0,4.0,4.0,4.0,4.0,4.0
81.0,0.0,4207.179487179489,4478.46153846154,4265.641025641027,4202.564102564104,4241.538461538463,4190.769230769232,4223.076923076925,4197.435897435899,4189.23076923077,4186.666666666668,4209.23076923077,4215.384615384617,4217.435897435899,4200.512820512822,405.0,2047.0,2048.0,0.0,0.0,4.0,4.0,4.0,4.0,0.0,4.0,4.0,4.0,4.0,0.0,4.0,4.0,4.0,4.0,4.0,4.0
82.0,0.0,4196.410256410258,4469.23076923077,4209.743589743592,4198.46153846154,4218.46153846154,4191.794871794873,4201.538461538463,4194.871794871797,4189.743589743592,4186.666666666668,4200.000000000002,4207.179487179489,4205.641025641027,4190.769230769232,857.0,2047.0,2048.0,0.0,0.0,4.0,4.0,4.0,4.0,0.0,4.0,4.0,4.0,4.0,0.0,4.0,4.0,4.0,4.0,4.0,4.0
83.0,0.0,4192.8205128205145,4465.641025641027,4139.487179487181,4192.307692307694,4199.487179487181,4195.384615384617,4180.512820512822,4200.000000000002,4197.435897435899,4186.153846153848,4192.8205128205145,4208.71794871795,4196.923076923078,4187.179487179489,825.0,2047.0,2048.0,0.0,0.0,4.0,4.0,4.0,4.0,0.0,4.0,4.0,4.0,4.0,0.0,4.0,4.0,4.0,4.0,4.0,4.0
84.0,0.0,4192.307692307694,4462.051282051283,4156.410256410258,4192.307692307694,4210.256410256412,4201.0256410256425,4195.897435897437,4201.538461538463,4198.46153846154,4186.666666666668,4192.307692307694,4211.282051282053,4201.0256410256425,4191.794871794873,847.0,2047.0,2048.0,0.0,0.0,4.0,4.0,4.0,4.0,0.0,4.0,4.0,4.0,4.0,0.0,4.0,4.0,4.0,4.0,4.0,4.0
85.0,0.0,4193.846153846155,4458.97435897436,4218.46153846154,4192.8205128205145,4232.8205128205145,4195.897435897437,4225.128205128207,4212.307692307694,4202.564102564104,4187.179487179489,4205.128205128207,4211.282051282053,4209.23076923077,4199.487179487181,405.0,2047.0,2048.0,0.0,0.0,4.0,4.0,4.0,4.0,0.0,4.0,4.0,4.0,4.0,0.0,4.0,4.0,4.0,4.0,4.0,4.0
