COUNTER,INTERPOLATED,AF3,F7,F3,FC5,T7,P7,O1,O2,P8,T8,FC6,F4,F8,AF4,RAW_CQ,GYROX,GYROY,MARKER,SYNC,CQ_AF3,CQ_F7,CQ_F3,CQ_FC5,CQ_T7,CQ_P7,CQ_O1,CQ_O2,CQ_P8,CQ_T8,CQ_FC6,CQ_F4,CQ_F8,CQ_AF4,CQ_CMS,CQ_DRL
95.0,0.0,4310.256410256412,4295.897435897437,4269.743589743592,4257.94871794872,4182.051282051283,4209.23076923077,4193.846153846155,4213.333333333335,4218.97435897436,4189.23076923077,4210.256410256412,4289.743589743592,4285.641025641027,4329.23076923077,820.0,2036.0,2047.0,0.0,0.0,0.0,0.0,0.0,0.0,0.0,0.0,0.0,0.0,0.0,0.0,0.0,0.0,0.0,0.0,0.0,0.0
96.0,0.0,4281.0256410256425,4288.20512820513,4246.153846153848,4229.743589743592,4186.666666666668,4202.564102564104,4196.410256410258,4207.179487179489,4209.23076923077,4181.0256410256425,4196.923076923078,4264.615384615386,4250.256410256412,4299.487179487181,842.0,2036.0,2045.0,0.0,0.0,0.0,0.0,0.0,0.0,0.0,0.0,0.0,0.0,0.0,0.0,0.0,0.0,0.0,0.0,0.0,0.0
97.0,0.0,4258.46153846154,4260.512820512822,4227.692307692309,4217.94871794872,4186.666666666668,4200.512820512822,4209.23076923077,4212.307692307694,4213.333333333335,4182.564102564104,4198.97435897436,4250.256410256412,4229.23076923077,4272.8205128205145,847.0,2035.0,2041.0,0.0,0.0,0.0,0.0,0.0,0.0,0.0,0.0,0.0,0.0,0.0,0.0,0.0,0.0,0.0,0.0,0.0,0.0
98.0,0.0,4245.128205128207,4226.666666666668,4227.179487179489,4217.94871794872,4184.102564102565,4200.000000000002,4196.923076923078,4218.97435897436,4231.794871794873,4193.846153846155,4214.3589743589755,4248.71794871795,4224.102564102565,4250.256410256412,861.0,2035.0,2030.0,0.0,0.0,0.0,0.0,0.0,0.0,0.0,0.0,0.0,0.0,0.0,0.0,0.0,0.0,0.0,0.0,0.0,0.0
99.0,0.0,4218.46153846154,4205.128205128207,4216.410256410258,4192.8205128205145,4187.179487179489,4198.97435897436,4167.692307692309,4206.153846153848,4234.871794871797,4192.307692307694,4211.282051282053,4230.769230769232,4200.000000000002,4223.076923076925,820.0,2036.0,2025.0,0.0,0.0,0.0,0.0,0.0,0.0,0.0,0.0,0.0,0.0,0.0,0.0,0.0,0.0,0.0,0.0,0.0,0.0
100.0,0.0,4206.666666666668,4203.076923076925,4209.743589743592,4191.794871794873,4188.71794871795,4199.487179487181,4184.102564102565,4197.94871794872,4222.564102564104,4186.666666666668,4201.538461538463,4221.538461538463,4186.153846153848,4212.307692307694,842.0,2033.0,2018.0,0.0,0.0,0.0,0.0,0.0,0.0,0.0,0.0,0.0,0.0,0.0,0.0,0.0,0.0,0.0,0.0,0.0,0.0
101.0,0.0,4211.794871794873,4202.051282051283,4215.384615384617,4215.897435897437,4186.666666666668,4202.564102564104,4209.743589743592,4204.615384615386,4207.179487179489,4185.128205128207,4195.384615384617,4234.871794871797,4192.307692307694,4207.692307692309,847.0,2030.0,2015.0,0.0,0.0,0.0,0.0,0.0,0.0,0.0,0.0,0.0,0.0,0.0,0.0,0.0,0.0,0.0,0.0,0.0,0.0
102.0,0.0,4186.153846153848,4182.051282051283,4200.512820512822,4190.256410256412,4187.692307692309,4201.538461538463,4188.71794871795,4197.435897435899,4185.641025641027,4175.384615384617,4173.846153846155,4221.538461538463,4171.282051282053,4183.076923076925,861.0,2030.0,2011.0,0.0,0.0,0.0,0.0,0.0,0.0,0.0,0.0,0.0,0.0,0.0,0.0,0.0,0.0,0.0,0.0,0.0,0.0
103.0,0.0,4148.71794871795,4161.538461538463,4172.8205128205145,4150.769230769232,4186.153846153848,4197.94871794872,4165.641025641027,4177.435897435899,4171.794871794873,4167.179487179489,4155.384615384617,4186.666666666668,4135.897435897437,4153.846153846155,820.0,2030.0,2009.0,0.0,0.0,0.0,0.0,0.0,0.0,0.0,0.0,0.0,0.0,0.0,0.0,0.0,0.0,0.0,0.0,0.0,0.0
104.0,0.0,4144.615384615386,4162.564102564104,4170.256410256412,4163.076923076925,4183.589743589745,4198.46153846154,4171.794871794873,4175.384615384617,4179.487179487181,4170.256410256412,4163.076923076925,4180.000000000002,4131.794871794873,4147.692307692309,842.0,2036.0,2008.0,0.0,0.0,0.0,0.0,0.0,0.0,0.0,0.0,0.0,0.0,0.0,0.0,0.0,0.0,0.0,0.0,0.0,0.0
105.0,0.0,4146.666666666668,4161.0256410256425,4173.333333333335,4172.8205128205145,4182.051282051283,4200.512820512822,4167.179487179489,4180.512820512822,4188.20512820513,4171.794871794873,4172.307692307694,4187.692307692309,4140.512820512822,4146.666666666668,847.0,2038.0,2008.0,0.0,0.0,0.0,0.0,0.0,0.0,0.0,0.0,0.0,0.0,0.0,0.0,0.0,0.0,0.0,0.0,0.0,0.0
106.0,0.0,4132.307692307694,4153.333333333335,4160.512820512822,4148.20512820513,4180.000000000002,4197.435897435899,4162.051282051283,4173.333333333335,4187.692307692309,4170.769230769232,4167.692307692309,4178.46153846154,4133.333333333335,4130.256410256412,861.0,2041.0,2006.0,0.0,0.0,0.0,0.0,0.0,0.0,0.0,0.0,0.0,0.0,0.0,0.0,0.0,0.0,0.0,0.0,0.0,0.0
107.0,0.0,4106.666666666668,4141.0256410256425,4140.512820512822,4127.179487179489,4185.128205128207,4183.589743589745,4174.3589743589755,4149.23076923077,4174.3589743589755,4168.71794871795,4147.692307692309,4155.384615384617,4106.666666666668,4103.076923076925,820.0,2047.0,2004.0,0.0,0.0,0.0,0.0,0.0,0.0,0.0,0.0,0.0,0.0,0.0,0.0,0.0,0.0,0.0,0.0,0.0,0.0
108.0,0.0,4064.615384615386,4106.666666666668,4107.179487179489,4102.051282051283,4186.666666666668,4166.666666666668,4174.871794871797,4114.871794871797,4137.435897435899,4154.3589743589755,4109.23076923077,4116.923076923078,4065.641025641027,4062.0512820512836,842.0,2050.0,2005.0,0.0,0.0,0.0,0.0,0.0,0.0,0.0,0.0,0.0,0.0,0.0,0.0,0.0,0.0,0.0,0.0,0.0,0.0
109.0,0.0,4063.589743589745,4104.615384615386,4100.000000000002,4098.46153846154,4180.000000000002,4173.333333333335,4183.589743589745,4125.641025641027,4133.333333333335,4151.794871794873,4114.3589743589755,4115.897435897437,4070.256410256412,4063.0769230769247,847.0,2053.0,2005.0,0.0,0.0,0.0,0.0,0.0,0.0,0.0,0.0,0.0,0.0,0.0,0.0,0.0,0.0,0.0,0.0,0.0,0.0
110.0,0.0,4118.46153846154,4154.871794871797,4141.538461538463,4139.487179487181,4178.46153846154,4196.923076923078,4213.333333333335,4178.46153846154,4185.128205128207,4173.333333333335,4171.282051282053,4170.256410256412,4130.769230769232,4115.897435897437,861.0,2057.0,2007.0,0.0,0.0,0.0,0.0,0.0,0.0,0.0,0.0,0.0,0.0,0.0,0.0,0.0,0.0,0.0,0.0,0.0,0.0
111.0,0.0,4140.000000000002,4184.102564102565,4165.128205128207,4157.435897435899,4182.051282051283,4202.564102564104,4227.179487179489,4200.512820512822,4208.71794871795,4186.153846153848,4195.384615384617,4195.897435897437,4162.051282051283,4136.410256410258,820.0,2061.0,2010.0,0.0,0.0,0.0,0.0,0.0,0.0,0.0,0.0,0.0,0.0,0.0,0.0,0.0,0.0,0.0,0.0,0.0,0.0
112.0,0.0,4123.076923076925,4176.410256410258,4158.97435897436,4145.641025641027,4182.564102564104,4196.923076923078,4212.8205128205145,4192.8205128205145,4190.769230769232,4183.076923076925,4181.538461538463,4180.000000000002,4148.71794871795,4117.435897435899,842.0,2062.0,2011.0,0.0,0.0,0.0,0.0,0.0,0.0,0.0,0.0,0.0,0.0,0.0,0.0,0.0,0.0,0.0,0.0,0.0,0.0
113.0,0.0,4129.23076923077,4178.97435897436,4161.0256410256425,4156.923076923078,4178.97435897436,4200.000000000002,4196.923076923078,4203.076923076925,4190.256410256412,4184.102564102565,4183.076923076925,4186.153846153848,4154.3589743589755,4121.0256410256425,847.0,2063.0,2014.0,0.0,0.0,0.0,0.0,0.0,0.0,0.0,0.0,0.0,0.0,0.0,0.0,0.0,0.0,0.0,0.0,0.0,0.0
114.0,0.0,4141.0256410256425,4191.794871794873,4157.94871794872,4168.20512820513,4175.897435897437,4198.46153846154,4198.46153846154,4212.8205128205145,4197.435897435899,4186.153846153848,4190.256410256412,4198.46153846154,4170.256410256412,4135.897435897437,861.0,2066.0,2013.0,0.0,0.0,0.0,0.0,0.0,0.0,0.0,0.0,0.0,0.0,0.0,0.0,0.0,0.0,0.0,0.0,0.0,0.0
115.0,0.0,4141.0256410256425,4198.97435897436,4144.615384615386,4156.923076923078,4177.94871794872,4187.179487179489,4205.128205128207,4195.897435897437,4181.0256410256425,4182.564102564104,4176.410256410258,4185.641025641027,4165.641025641027,4136.923076923078,820.0,2065.0,2013.0,0.0,0.0,0.0,0.0,0.0,0.0,0.0,0.0,0.0,0.0,0.0,0.0,0.0,0.0,0.0,0.0,0.0,0.0
116.0,0.0,4162.564102564104,4220.512820512822,4158.46153846154,4164.102564102565,4181.538461538463,4182.564102564104,4198.97435897436,4182.564102564104,4168.20512820513,4180.512820512822,4166.666666666668,4185.641025641027,4176.923076923078,4156.410256410258,842.0,2064.0,2014.0,0.0,0.0,0.0,0.0,0.0,0.0,0.0,0.0,0.0,0.0,0.0,0.0,0.0,0.0,0.0,0.0,0.0,0.0
117.0,0.0,4205.641025641027,4267.179487179489,4191.794871794873,4195.384615384617,4181.0256410256425,4185.641025641027,4180.512820512822,4186.666666666668,4171.282051282053,4181.538461538463,4174.871794871797,4209.743589743592,4216.923076923078,4205.641025641027,847.0,2065.0,2031.0,0.0,0.0,0.0,0.0,0.0,0.0,0.0,0.0,0.0,0.0,0.0,0.0,0.0,0.0,0.0,0.0,0.0,0.0
118.0,0.0,4251.794871794873,4322.051282051283,4215.897435897437,4225.641025641027,4183.076923076925,4191.282051282053,4183.076923076925,4197.435897435899,4181.0256410256425,4183.076923076925,4188.71794871795,4235.897435897437,4255.897435897437,4261.538461538463,861.0,2064.0,2016.0,0.0,0.0,0.0,0.0,0.0,0.0,0.0,0.0,0.0,0.0,0.0,0.0,0.0,0.0,0.0,0.0,0.0,0.0
119.0,0.0,4292.8205128205145,4361.0256410256425,4234.3589743589755,4245.128205128207,4189.743589743592,4198.46153846154,4210.769230769232,4208.71794871795,4194.3589743589755,4185.128205128207,4200.512820512822,4260.512820512822,4275.897435897437,4305.641025641027,820.0,2065.0,2016.0,0.0,0.0,0.0,0.0,0.0,0.0,0.0,0.0,0.0,0.0,0.0,0.0,0.0,0.0,0.0,0.0,0.0,0.0
120.0,0.0,4320.000000000002,4385.128205128207,4249.743589743592,4259.487179487181,4187.179487179489,4202.564102564104,4213.846153846155,4216.923076923078,4201.538461538463,4186.153846153848,4205.128205128207,4278.97435897436,4289.743589743592,4331.794871794873,842.0,2064.0,2017.0,0.0,0.0,0.0,0.0,0.0,0.0,0.0,0.0,0.0,0.0,0.0,0.0,0.0,0.0,0.0,0.0,0.0,0.0
121.0,0.0,4326.666666666668,4387.179487179488,4247.692307692309,4267.179487179489,4182.051282051283,4200.512820512822,4183.589743589745,4216.923076923078,4200.512820512822,4185.128205128207,4204.615384615386,4284.615384615386,4301.538461538463,4338.97435897436,847.0,2064.0,2018.0,0.0,0.0,0.0,0.0,0.0,0.0,0.0,0.0,0.0,0.0,0.0,0.0,0.0,0.0,0.0,0.0,0.0,0.0
122.0,0.0,4316.923076923078,4370.256410256412,4242.051282051283,4257.94871794872,4187.692307692309,4198.97435897436,4175.384615384617,4210.769230769232,4198.97435897436,4183.589743589745,4202.051282051283,4279.487179487181,4297.94871794872,4331.282051282053,861.0,2063.0,2018.0,0.0,0.0,0.0,0.0,0.0,0.0,0.0,0.0,0.0,0.0,0.0,0.0,0.0,0.0,0.0,0.0,0.0,0.0
123.0,0.0,4304.615384615386,4362.564102564104,4242.051282051283,4248.20512820513,4191.794871794873,4200.512820512822,4202.051282051283,4211.794871794873,4200.000000000002,4185.641025641027,4202.564102564104,4273.333333333335,4283.589743589745,4322.051282051283,820.0,2062.0,2019.0,0.0,0.0,0.0,0.0,0.0,0.0,0.0,0.0,0.0,0.0,0.0,0.0,0.0,0.0,0.0,0.0,0.0,0.0
124.0,0.0,4290.769230769232,4345.128205128207,4226.153846153848,4250.769230769232,4190.769230769232,4201.0256410256425,4219.487179487181,4215.384615384617,4200.000000000002,4186.666666666668,4204.102564102565,4265.641025641027,4271.282051282053,4303.076923076925,842.0,2060.0,2021.0,0.0,0.0,0.0,0.0,0.0,0.0,0.0,0.0,0.0,0.0,0.0,0.0,0.0,0.0,0.0,0.0,0.0,0.0
125.0,0.0,4274.871794871797,4316.923076923078,4205.128205128207,4245.128205128207,4189.743589743592,4208.71794871795,4222.051282051283,4214.3589743589755,4200.000000000002,4186.666666666668,4204.615384615386,4257.94871794872,4256.410256410258,4276.923076923078,847.0,2059.0,2022.0,0.0,0.0,0.0,0.0,0.0,0.0,0.0,0.0,0.0,0.0,0.0,0.0,0.0,0.0,0.0,0.0,0.0,0.0
126.0,0.0,4258.46153846154,4306.153846153848,4207.692307692309,4228.20512820513,4189.23076923077,4213.846153846155,4223.076923076925,4216.923076923078,4203.589743589745,4188.20512820513,4207.179487179489,4254.3589743589755,4238.97435897436,4262.564102564104,861.0,2057.0,2028.0,0.0,0.0,0.0,0.0,0.0,0.0,0.0,0.0,0.0,0.0,0.0,0.0,0.0,0.0,0.0,0.0,0.0,0.0
127.0,0.0,4241.538461538463,4291.794871794873,4215.384615384617,4217.94871794872,4188.71794871795,4211.282051282053,4231.282051282053,4218.97435897436,4203.589743589745,4188.20512820513,4208.71794871795,4251.282051282053,4228.20512820513,4252.8205128205145,820.0,2057.0,2028.0,0.0,0.0,0.0,0.0,0.0,0.0,0.0,0.0,0.0,0.0,0.0,0.0,0.0,0.0,0.0,0.0,0.0,0.0
128.0,0.0,4214.3589743589755,4247.179487179489,4198.46153846154,4201.0256410256425,4189.23076923077,4208.71794871795,4242.051282051283,4208.20512820513,4195.897435897437,4187.179487179489,4200.512820512822,4234.3589743589755,4210.769230769232,4222.051282051283,842.0,2055.0,2031.0,0.0,0.0,0.0,0.0,4.0,0.0,0.0,0.0,0.0,0.0,0.0,0.0,0.0,0.0,0.0,0.0,4.0,4.0
0.0,0.0,4178.46153846154,4209.23076923077,4170.256410256412,4175.897435897437,4188.71794871795,4205.128205128207,4233.846153846155,4195.897435897437,4180.000000000002,4182.564102564104,4181.538461538463,4202.051282051283,4174.871794871797,4177.94871794872,808.0,2054.0,2034.0,0.0,0.0,0.0,0.0,4.0,0.0,0.0,0.0,0.0,0.0,0.0,0.0,0.0,0.0,0.0,0.0,4.0,4.0
1.0,0.0,4156.923076923078,4194.871794871797,4163.589743589745,4164.615384615386,4185.641025641027,4198.97435897436,4225.641025641027,4197.435897435899,4175.384615384617,4177.435897435899,4168.71794871795,4187.692307692309,4150.256410256412,4154.3589743589755,845.0,2053.0,2036.0,0.0,0.0,0.0,0.0,4.0,4.0,0.0,0.0,0.0,0.0,0.0,0.0,0.0,0.0,0.0,0.0,4.0,4.0
2.0,0.0,4152.8205128205145,4177.94871794872,4171.282051282053,4165.128205128207,4183.076923076925,4198.97435897436,4245.128205128207,4202.564102564104,4185.641025641027,4180.000000000002,4173.333333333335,4194.3589743589755,4148.71794871795,4146.153846153848,836.0,2053.0,2044.0,0.0,0.0,4.0,0.0,4.0,4.0,0.0,0.0,0.0,0.0,0.0,0.0,0.0,0.0,0.0,0.0,4.0,4.0
3.0,0.0,4151.794871794873,4165.641025641027,4174.871794871797,4167.692307692309,4186.153846153848,4202.564102564104,4274.3589743589755,4200.000000000002,4187.692307692309,4184.102564102565,4182.564102564104,4201.0256410256425,4152.307692307694,4141.0256410256425,843.0,2053.0,2047.0,0.0,0.0,4.0,4.0,4.0,4.0,0.0,0.0,0.0,0.0,0.0,0.0,0.0,0.0,0.0,0.0,4.0,4.0
4.0,0.0,4144.102564102565,4167.179487179489,4166.666666666668,4162.564102564104,4187.692307692309,4201.538461538463,4293.846153846155,4196.923076923078,4184.615384615386,4184.615384615386,4185.128205128207,4200.000000000002,4154.3589743589755,4139.487179487181,0.0,2052.0,2051.0,0.0,0.0,4.0,4.0,4.0,4.0,0.0,0.0,0.0,0.0,0.0,0.0,0.0,0.0,0.0,0.0,4.0,4.0
5.0,0.0,4130.769230769232,4165.128205128207,4149.743589743592,4151.794871794873,4186.666666666668,4203.076923076925,4290.256410256412,4193.846153846155,4184.615384615386,4184.102564102565,4181.538461538463,4186.666666666668,4149.23076923077,4127.692307692309,640.0,2051.0,2054.0,0.0,0.0,4.0,4.0,4.0,4.0,0.0,4.0,0.0,0.0,0.0,0.0,0.0,0.0,0.0,0.0,4.0,4.0
6.0,0.0,4118.46153846154,4152.307692307694,4138.46153846154,4148.71794871795,4185.128205128207,4204.615384615386,4248.71794871795,4186.666666666668,4176.410256410258,4180.000000000002,4172.8205128205145,4169.743589743592,4135.384615384617,4106.666666666668,725.0,2050.0,2059.0,0.0,0.0,4.0,4.0,4.0,4.0,0.0,4.0,4.0,0.0,0.0,0.0,0.0,0.0,0.0,0.0,4.0,4.0
7.0,0.0,4113.333333333335,4144.102564102565,4138.97435897436,4150.256410256412,4185.128205128207,4199.487179487181,4222.051282051283,4179.487179487181,4165.128205128207,4175.384615384617,4166.153846153848,4168.71794871795,4130.769230769232,4101.538461538463,860.0,2051.0,2061.0,0.0,0.0,4.0,4.0,4.0,4.0,0.0,4.0,4.0,4.0,0.0,0.0,0.0,0.0,0.0,0.0,4.0,4.0
8.0,0.0,4120.512820512822,4153.846153846155,4146.153846153848,4153.846153846155,4186.153846153848,4201.538461538463,4251.794871794873,4183.589743589745,4173.333333333335,4181.0256410256425,4170.256410256412,4182.564102564104,4140.000000000002,4113.846153846155,770.0,2052.0,2063.0,0.0,0.0,4.0,4.0,4.0,4.0,0.0,4.0,4.0,4.0,4.0,0.0,0.0,0.0,0.0,0.0,4.0,4.0
9.0,0.0,4127.179487179489,4157.94871794872,4149.743589743592,4159.487179487181,4184.102564102565,4204.615384615386,4284.615384615386,4193.333333333335,4185.641025641027,4186.666666666668,4178.97435897436,4187.692307692309,4142.051282051283,4120.512820512822,219.0,2051.0,2064.0,0.0,0.0,4.0,4.0,4.0,4.0,0.0,4.0,4.0,4.0,4.0,3.0,0.0,0.0,0.0,0.0,4.0,4.0
10.0,0.0,4119.487179487181,4147.692307692309,4145.128205128207,4157.435897435899,4184.102564102565,4201.538461538463,4281.538461538463,4194.871794871797,4182.051282051283,4184.102564102565,4181.0256410256425,4178.97435897436,4137.435897435899,4114.3589743589755,861.0,2050.0,2064.0,0.0,0.0,4.0,4.0,4.0,4.0,0.0,4.0,4.0,4.0,4.0,3.0,0.0,0.0,4.0,0.0,4.0,4.0
11.0,0.0,4111.794871794873,4141.0256410256425,4141.538461538463,4151.794871794873,4189.743589743592,4198.97435897436,4260.512820512822,4188.20512820513,4174.871794871797,4181.538461538463,4178.97435897436,4171.282051282053,4135.897435897437,4108.71794871795,820.0,2053.0,2061.0,0.0,0.0,4.0,4.0,4.0,4.0,0.0,4.0,4.0,4.0,4.0,3.0,0.0,0.0,4.0,4.0,4.0,4.0
12.0,0.0,4108.71794871795,4137.94871794872,4137.435897435899,4151.794871794873,4187.179487179489,4200.512820512822,4269.743589743592,4185.641025641027,4172.307692307694,4182.564102564104,4173.333333333335,4168.20512820513,4133.333333333335,4103.589743589745,842.0,2054.0,2061.0,0.0,0.0,4.0,4.0,4.0,4.0,0.0,4.0,4.0,4.0,4.0,3.0,4.0,0.0,4.0,4.0,4.0,4.0
13.0,0.0,4106.666666666668,4133.846153846155,4134.3589743589755,4151.794871794873,4181.538461538463,4201.538461538463,4311.282051282053,4187.179487179489,4171.794871794873,4182.051282051283,4168.71794871795,4169.743589743592,4133.333333333335,4102.051282051283,847.0,2055.0,2057.0,0.0,0.0,4.0,4.0,4.0,4.0,0.0,4.0,4.0,4.0,4.0,3.0,4.0,4.0,4.0,4.0,4.0,4.0
14.0,0.0,4114.871794871797,4136.410256410258,4144.615384615386,4153.333333333335,4185.128205128207,4200.000000000002,4327.692307692309,4187.692307692309,4173.333333333335,4183.589743589745,4176.410256410258,4178.46153846154,4137.94871794872,4109.743589743592,861.0,2056.0,2055.0,0.0,0.0,4.0,4.0,4.0,4.0,0.0,4.0,4.0,4.0,4.0,3.0,4.0,4.0,4.0,4.0,4.0,4.0
15.0,0.0,4118.97435897436,4137.94871794872,4149.743589743592,4155.897435897437,4184.102564102565,4200.000000000002,4306.153846153848,4188.20512820513,4174.3589743589755,4184.102564102565,4183.076923076925,4185.128205128207,4136.410256410258,4112.307692307694,820.0,2057.0,2051.0,0.0,0.0,4.0,4.0,4.0,4.0,0.0,4.0,4.0,4.0,4.0,3.0,4.0,4.0,4.0,4.0,4.0,4.0
16.0,0.0,4112.307692307694,4130.256410256412,4141.0256410256425,4155.897435897437,4184.102564102565,4201.538461538463,4293.846153846155,4186.666666666668,4171.282051282053,4178.97435897436,4175.897435897437,4182.564102564104,4134.3589743589755,4109.23076923077,0.0,2057.0,2047.0,0.0,0.0,4.0,4.0,4.0,4.0,0.0,4.0,4.0,4.0,4.0,3.0,4.0,4.0,4.0,4.0,4.0,4.0
17.0,0.0,4114.871794871797,4126.666666666668,4141.538461538463,4155.897435897437,4187.692307692309,4201.538461538463,4296.410256410258,4184.615384615386,4170.769230769232,4177.435897435899,4169.23076923077,4181.538461538463,4136.923076923078,4112.8205128205145,0.0,2059.0,2042.0,0.0,0.0,4.0,4.0,4.0,4.0,0.0,4.0,4.0,4.0,4.0,3.0,4.0,4.0,4.0,4.0,4.0,4.0
18.0,0.0,4119.487179487181,4135.384615384617,4147.692307692309,4157.435897435899,4184.615384615386,4201.0256410256425,4292.307692307694,4185.641025641027,4171.794871794873,4184.102564102565,4171.794871794873,4182.564102564104,4135.897435897437,4115.897435897437,0.0,2059.0,2041.0,0.0,0.0,4.0,4.0,4.0,4.0,0.0,4.0,4.0,4.0,4.0,3.0,4.0,4.0,4.0,4.0,4.0,4.0
19.0,0.0,4118.97435897436,4141.0256410256425,4148.71794871795,4157.94871794872,4181.538461538463,4203.076923076925,4291.282051282053,4186.153846153848,4172.8205128205145,4187.179487179489,4174.871794871797,4184.615384615386,4136.410256410258,4113.846153846155,0.0,2059.0,2037.0,0.0,0.0,4.0,4.0,4.0,4.0,0.0,4.0,4.0,4.0,4.0,3.0,4.0,4.0,4.0,4.0,4.0,4.0
20.0,0.0,4115.897435897437,4134.871794871797,4143.589743589745,4151.794871794873,4181.538461538463,4201.538461538463,4292.8205128205145,4183.589743589745,4171.794871794873,4182.564102564104,4173.846153846155,4183.076923076925,4137.435897435899,4111.794871794873,0.0,2059.0,2035.0,0.0,0.0,4.0,4.0,4.0,4.0,0.0,4.0,4.0,4.0,4.0,3.0,4.0,4.0,4.0,4.0,4.0,4.0
21.0,0.0,4106.153846153848,4121.0256410256425,4132.8205128205145,4141.538461538463,4182.564102564104,4191.282051282053,4292.307692307694,4175.384615384617,4166.153846153848,4183.076923076925,4168.20512820513,4169.743589743592,4128.20512820513,4107.179487179489,0.0,2059.0,2035.0,0.0,0.0,4.0,4.0,4.0,4.0,0.0,4.0,4.0,4.0,4.0,3.0,4.0,4.0,4.0,4.0,4.0,4.0
22.0,0.0,4093.846153846155,4110.256410256412,4122.051282051283,4135.384615384617,4184.615384615386,4185.641025641027,4304.102564102565,4165.641025641027,4161.0256410256425,4184.102564102565,4160.512820512822,4157.435897435899,4119.487179487181,4096.923076923078,0.0,2059.0,2033.0,0.0,0.0,4.0,4.0,4.0,4.0,0.0,4.0,4.0,4.0,4.0,3.0,4.0,4.0,4.0,4.0,4.0,4.0
23.0,0.0,4089.743589743591,4107.179487179489,4117.94871794872,4130.256410256412,4190.769230769232,4182.051282051283,4314.3589743589755,4158.46153846154,4158.46153846154,4173.846153846155,4156.410256410258,4152.307692307694,4116.923076923078,4086.1538461538476,0.0,2058.0,2033.0,0.0,0.0,4.0,4.0,4.0,4.0,0.0,4.0,4.0,4.0,4.0,3.0,4.0,4.0,4.0,4.0,4.0,4.0
24.0,0.0,4089.230769230771,4107.179487179489,4117.435897435899,4122.051282051283,4187.179487179489,4178.46153846154,4284.102564102565,4151.282051282053,4152.307692307694,4166.153846153848,4150.769230769232,4145.128205128207,4110.256410256412,4083.589743589745,0.0,2054.0,2033.0,0.0,0.0,4.0,4.0,4.0,4.0,0.0,4.0,4.0,4.0,4.0,3.0,4.0,4.0,4.0,4.0,4.0,4.0
25.0,0.0,4086.6666666666683,4104.615384615386,4114.3589743589755,4119.487179487181,4181.0256410256425,4176.923076923078,4248.71794871795,4151.282051282053,4153.333333333335,4174.871794871797,4152.8205128205145,4143.076923076925,4107.179487179489,4085.641025641027,0.0,2052.0,2032.0,0.0,0.0,4.0,4.0,4.0,4.0,0.0,4.0,4.0,4.0,4.0,3.0,4.0,4.0,4.0,4.0,4.0,4.0
26.0,0.0,4086.1538461538476,4101.0256410256425,4115.897435897437,4122.051282051283,4187.179487179489,4174.871794871797,4265.641025641027,4157.435897435899,4172.8205128205145,4185.641025641027,4170.256410256412,4149.23076923077,4113.333333333335,4086.6666666666683,0.0,2048.0,2033.0,0.0,0.0,4.0,4.0,4.0,4.0,0.0,4.0,4.0,4.0,4.0,3.0,4.0,4.0,4.0,4.0,4.0,4.0
27.0,0.0,4082.0512820512836,4095.8974358974374,4115.384615384617,4120.000000000002,4190.256410256412,4168.71794871795,4272.307692307694,4148.71794871795,4176.923076923078,4179.487179487181,4172.8205128205145,4144.615384615386,4112.307692307694,4082.0512820512836,0.0,2046.0,2031.0,0.0,0.0,4.0,4.0,4.0,4.0,0.0,4.0,4.0,4.0,4.0,3.0,4.0,4.0,4.0,4.0,4.0,4.0
28.0,0.0,4076.4102564102577,4094.358974358976,4107.179487179489,4118.46153846154,4188.71794871795,4165.128205128207,4240.512820512822,4133.333333333335,4147.692307692309,4168.20512820513,4146.153846153848,4133.846153846155,4103.589743589745,4072.8205128205145,0.0,2044.0,2029.0,0.0,0.0,4.0,4.0,4.0,4.0,0.0,4.0,4.0,4.0,4.0,3.0,4.0,4.0,4.0,4.0,4.0,4.0
29.0,0.0,4082.564102564104,4098.46153846154,4110.256410256412,4122.051282051283,4189.23076923077,4168.71794871795,4256.410256410258,4133.846153846155,4133.846153846155,4167.692307692309,4132.8205128205145,4136.410256410258,4105.128205128207,4072.8205128205145,0.0,2042.0,2030.0,0.0,0.0,4.0,4.0,4.0,4.0,0.0,4.0,4.0,4.0,4.0,3.0,4.0,4.0,4.0,4.0,4.0,4.0
30.0,0.0,4088.2051282051298,4103.076923076925,4117.94871794872,4124.615384615386,4186.153846153848,4171.282051282053,4302.564102564104,4141.538461538463,4151.282051282053,4171.794871794873,4148.20512820513,4140.000000000002,4109.23076923077,4082.0512820512836,0.0,2039.0,2030.0,0.0,0.0,4.0,4.0,4.0,4.0,0.0,4.0,4.0,4.0,4.0,3.0,4.0,4.0,4.0,4.0,4.0,4.0
31.0,0.0,4086.1538461538476,4103.589743589745,4113.846153846155,4122.564102564104,4184.102564102565,4169.743589743592,4293.846153846155,4137.94871794872,4155.897435897437,4169.23076923077,4155.384615384617,4136.923076923078,4107.692307692309,4083.589743589745,0.0,2040.0,2028.0,0.0,0.0,4.0,4.0,4.0,4.0,0.0,4.0,4.0,4.0,4.0,3.0,4.0,4.0,4.0,4.0,4.0,4.0
32.0,0.0,4087.692307692309,4103.589743589745,4111.794871794873,4121.0256410256425,4187.179487179489,4172.8205128205145,4266.666666666668,4140.512820512822,4148.20512820513,4169.23076923077,4151.794871794873,4140.000000000002,4111.794871794873,4084.102564102566,0.0,2037.0,2028.0,0.0,0.0,4.0,4.0,4.0,4.0,0.0,4.0,4.0,4.0,4.0,3.0,4.0,4.0,4.0,4.0,4.0,4.0
33.0,0.0,4097.435897435899,4108.71794871795,4122.051282051283,4124.102564102565,4186.666666666668,4180.000000000002,4283.589743589745,4153.846153846155,4159.487179487181,4176.410256410258,4160.000000000002,4151.794871794873,4122.564102564104,4096.923076923078,0.0,2036.0,2028.0,0.0,0.0,4.0,4.0,4.0,4.0,0.0,4.0,4.0,4.0,4.0,3.0,4.0,4.0,4.0,4.0,4.0,4.0
34.0,0.0,4101.538461538463,4113.846153846155,4130.256410256412,4127.692307692309,4181.0256410256425,4183.076923076925,4283.076923076925,4156.923076923078,4173.846153846155,4175.897435897437,4171.282051282053,4156.410256410258,4126.666666666668,4107.692307692309,0.0,2036.0,2030.0,0.0,0.0,4.0,4.0,4.0,4.0,0.0,4.0,4.0,4.0,4.0,3.0,4.0,4.0,4.0,4.0,4.0,4.0
35.0,0.0,4100.512820512822,4116.410256410258,4130.256410256412,4132.8205128205145,4179.487179487181,4182.051282051283,4253.333333333335,4156.923076923078,4170.769230769232,4173.846153846155,4170.769230769232,4153.333333333335,4124.615384615386,4105.128205128207,0.0,2034.0,2034.0,0.0,0.0,4.0,4.0,4.0,4.0,0.0,4.0,4.0,4.0,4.0,3.0,4.0,4.0,4.0,4.0,4.0,4.0
36.0,0.0,4106.153846153848,4120.512820512822,4134.3589743589755,4141.0256410256425,4182.564102564104,4185.641025641027,4270.769230769232,4165.128205128207,4171.794871794873,4180.000000000002,4169.743589743592,4158.97435897436,4125.128205128207,4104.102564102565,0.0,2033.0,2036.0,0.0,0.0,4.0,4.0,4.0,4.0,0.0,4.0,4.0,4.0,4.0,3.0,4.0,4.0,4.0,4.0,4.0,4.0
37.0,0.0,4112.307692307694,4124.615384615386,4138.46153846154,4143.589743589745,4182.564102564104,4188.71794871795,4286.666666666668,4173.846153846155,4184.102564102565,4188.20512820513,4177.435897435899,4165.128205128207,4129.743589743592,4111.282051282053,0.0,2033.0,2037.0,0.0,0.0,4.0,4.0,4.0,4.0,0.0,4.0,4.0,4.0,4.0,3.0,4.0,4.0,4.0,4.0,4.0,4.0
38.0,0.0,4108.71794871795,4116.410256410258,4134.871794871797,4139.487179487181,4181.0256410256425,4180.000000000002,4251.282051282053,4170.256410256412,4183.076923076925,4184.615384615386,4177.94871794872,4158.97435897436,4129.743589743592,4108.20512820513,0.0,2034.0,2037.0,0.0,0.0,4.0,4.0,4.0,4.0,0.0,4.0,4.0,4.0,4.0,3.0,4.0,4.0,4.0,4.0,4.0,4.0
39.0,0.0,4103.076923076925,4107.179487179489,4129.23076923077,4135.897435897437,4185.128205128207,4168.71794871795,4248.71794871795,4160.000000000002,4171.282051282053,4174.3589743589755,4169.23076923077,4152.8205128205145,4125.128205128207,4102.051282051283,0.0,2035.0,2040.0,0.0,0.0,4.0,4.0,4.0,4.0,0.0,4.0,4.0,4.0,4.0,3.0,4.0,4.0,4.0,4.0,4.0,4.0
40.0,0.0,4102.051282051283,4112.8205128205145,4126.666666666668,4134.871794871797,4185.128205128207,4165.641025641027,4301.538461538463,4153.333333333335,4168.20512820513,4174.3589743589755,4163.589743589745,4157.435897435899,4122.051282051283,4105.128205128207,0.0,2036.0,2043.0,0.0,0.0,4.0,4.0,4.0,4.0,0.0,4.0,4.0,4.0,4.0,3.0,4.0,4.0,4.0,4.0,4.0,4.0
41.0,0.0,4105.128205128207,4120.512820512822,4127.692307692309,4136.410256410258,4183.076923076925,4170.256410256412,4322.051282051283,4156.923076923078,4171.282051282053,4176.923076923078,4167.692307692309,4164.102564102565,4125.128205128207,4110.256410256412,0.0,2036.0,2043.0,0.0,0.0,4.0,4.0,4.0,4.0,0.0,4.0,4.0,4.0,4.0,3.0,4.0,4.0,4.0,4.0,4.0,4.0
42.0,0.0,4111.794871794873,4122.051282051283,4134.3589743589755,4142.564102564104,4183.589743589745,4174.3589743589755,4274.3589743589755,4164.102564102565,4172.8205128205145,4174.871794871797,4171.794871794873,4165.641025641027,4130.256410256412,4112.8205128205145,0.0,2037.0,2043.0,0.0,0.0,4.0,4.0,4.0,4.0,0.0,4.0,4.0,4.0,4.0,3.0,4.0,4.0,4.0,4.0,4.0,4.0
43.0,0.0,4106.666666666668,4121.0256410256425,4128.71794871795,4141.0256410256425,4184.615384615386,4170.256410256412,4209.23076923077,4154.3589743589755,4161.538461538463,4169.23076923077,4156.923076923078,4154.871794871797,4125.641025641027,4105.128205128207,0.0,2036.0,2043.0,0.0,0.0,4.0,4.0,4.0,4.0,0.0,4.0,4.0,4.0,4.0,3.0,4.0,4.0,4.0,4.0,4.0,4.0
44.0,0.0,4097.435897435899,4119.487179487181,4120.000000000002,4132.307692307694,4188.20512820513,4168.71794871795,4201.538461538463,4148.71794871795,4150.769230769232,4170.256410256412,4145.128205128207,4145.128205128207,4116.923076923078,4096.410256410258,0.0,2035.0,2042.0,0.0,0.0,4.0,4.0,4.0,4.0,0.0,4.0,4.0,4.0,4.0,3.0,4.0,4.0,4.0,4.0,4.0,4.0
45.0,0.0,4113.333333333335,4127.692307692309,4134.871794871797,4144.102564102565,4187.692307692309,4180.000000000002,4231.794871794873,4172.307692307694,4173.846153846155,4178.97435897436,4168.71794871795,4162.051282051283,4132.307692307694,4111.794871794873,0.0,2036.0,2042.0,0.0,0.0,4.0,4.0,4.0,4.0,0.0,4.0,4.0,4.0,4.0,3.0,4.0,4.0,4.0,4.0,4.0,4.0
46.0,0.0,4134.3589743589755,4143.589743589745,4151.282051282053,4165.641025641027,4182.564102564104,4187.179487179489,4213.846153846155,4193.846153846155,4203.076923076925,4186.666666666668,4196.923076923078,4185.128205128207,4160.000000000002,4134.871794871797,0.0,2038.0,2041.0,0.0,0.0,4.0,4.0,4.0,4.0,0.0,4.0,4.0,4.0,4.0,3.0,4.0,4.0,4.0,4.0,4.0,4.0
47.0,0.0,4132.307692307694,4146.153846153848,4148.20512820513,4163.589743589745,4182.051282051283,4182.564102564104,4198.46153846154,4188.20512820513,4196.410256410258,4187.179487179489,4194.871794871797,4187.179487179489,4165.641025641027,4137.435897435899,0.0,2036.0,2042.0,0.0,0.0,4.0,4.0,4.0,4.0,0.0,4.0,4.0,4.0,4.0,3.0,4.0,4.0,4.0,4.0,4.0,4.0
48.0,0.0,4121.538461538463,4139.487179487181,4138.97435897436,4153.333333333335,4185.641025641027,4178.46153846154,4228.20512820513,4183.076923076925,4183.076923076925,4184.102564102565,4184.102564102565,4180.000000000002,4156.923076923078,4131.794871794873,0.0,2036.0,2040.0,0.0,0.0,4.0,4.0,4.0,4.0,0.0,4.0,4.0,4.0,4.0,3.0,4.0,4.0,4.0,4.0,4.0,4.0
49.0,0.0,4123.076923076925,4136.410256410258,4130.769230769232,4153.333333333335,4188.71794871795,4177.435897435899,4233.333333333335,4188.71794871795,4188.71794871795,4185.128205128207,4182.564102564104,4178.46153846154,4153.333333333335,4134.3589743589755,0.0,2035.0,2039.0,0.0,0.0,4.0,4.0,4.0,4.0,0.0,4.0,4.0,4.0,4.0,3.0,4.0,4.0,4.0,4.0,4.0,4.0
50.0,0.0,4126.153846153848,4136.410256410258,4128.20512820513,4153.333333333335,4186.153846153848,4172.307692307694,4223.589743589745,4186.153846153848,4187.692307692309,4184.615384615386,4181.538461538463,4178.46153846154,4157.94871794872,4137.94871794872,0.0,2035.0,2039.0,0.0,0.0,4.0,4.0,4.0,4.0,0.0,4.0,4.0,4.0,4.0,3.0,4.0,4.0,4.0,4.0,4.0,4.0
51.0,0.0,4129.23076923077,4141.538461538463,4142.051282051283,4153.846153846155,4183.589743589745,4169.23076923077,4244.615384615386,4183.076923076925,4182.564102564104,4183.076923076925,4179.487179487181,4180.512820512822,4163.076923076925,4141.0256410256425,0.0,2035.0,2040.0,0.0,0.0,4.0,4.0,4.0,4.0,0.0,4.0,4.0,4.0,4.0,3.0,4.0,4.0,4.0,4.0,4.0,4.0
52.0,0.0,4144.615384615386,4155.897435897437,4158.97435897436,4163.076923076925,4184.615384615386,4169.743589743592,4274.871794871797,4181.0256410256425,4184.615384615386,4184.102564102565,4177.94871794872,4187.692307692309,4169.743589743592,4154.871794871797,0.0,2034.0,2039.0,0.0,0.0,4.0,4.0,4.0,4.0,0.0,4.0,4.0,4.0,4.0,3.0,4.0,4.0,4.0,4.0,4.0,4.0
53.0,0.0,4169.23076923077,4181.538461538463,4165.128205128207,4174.871794871797,4183.076923076925,4166.666666666668,4285.641025641027,4178.97435897436,4183.076923076925,4183.076923076925,4180.000000000002,4198.46153846154,4189.743589743592,4181.538461538463,0.0,2034.0,2039.0,0.0,0.0,4.0,4.0,4.0,4.0,0.0,4.0,4.0,4.0,4.0,3.0,4.0,4.0,4.0,4.0,4.0,4.0
54.0,0.0,4202.051282051283,4218.97435897436,4185.128205128207,4197.94871794872,4184.102564102565,4172.307692307694,4281.0256410256425,4189.23076923077,4190.769230769232,4183.589743589745,4192.8205128205145,4217.94871794872,4225.128205128207,4222.051282051283,0.0,2033.0,2040.0,0.0,0.0,4.0,4.0,4.0,4.0,0.0,4.0,4.0,4.0,4.0,3.0,4.0,4.0,4.0,4.0,4.0,4.0
55.0,0.0,4235.384615384617,4248.20512820513,4211.794871794873,4223.076923076925,4186.153846153848,4182.051282051283,4261.0256410256425,4200.000000000002,4202.564102564104,4187.692307692309,4204.615384615386,4238.46153846154,4252.8205128205145,4262.564102564104,0.0,2031.0,2041.0,0.0,0.0,4.0,4.0,4.0,4.0,0.0,4.0,4.0,4.0,4.0,3.0,4.0,4.0,4.0,4.0,4.0,4.0
56.0,0.0,4263.589743589745,4273.333333333335,4223.076923076925,4231.282051282053,4185.128205128207,4180.000000000002,4269.743589743592,4199.487179487181,4201.538461538463,4187.692307692309,4208.20512820513,4253.846153846155,4268.20512820513,4293.846153846155,0.0,2030.0,2043.0,0.0,0.0,4.0,4.0,4.0,4.0,0.0,4.0,4.0,4.0,4.0,3.0,4.0,4.0,4.0,4.0,4.0,4.0
57.0,0.0,4301.538461538463,4316.923076923078,4240.512820512822,4246.153846153848,4185.128205128207,4179.487179487181,4307.692307692309,4202.051282051283,4204.615384615386,4188.71794871795,4218.46153846154,4273.846153846155,4294.871794871797,4335.384615384617,0.0,2028.0,2042.0,0.0,0.0,4.0,4.0,4.0,4.0,0.0,4.0,4.0,4.0,4.0,3.0,4.0,4.0,4.0,4.0,4.0,4.0
58.0,0.0,4332.8205128205145,4345.128205128207,4254.3589743589755,4266.153846153848,4186.666666666668,4183.076923076925,4302.051282051283,4201.538461538463,4211.794871794873,4193.333333333335,4225.641025641027,4285.641025641027,4311.794871794873,4365.641025641027,0.0,2028.0,2044.0,0.0,0.0,4.0,4.0,4.0,4.0,0.0,4.0,4.0,4.0,4.0,3.0,4.0,4.0,4.0,4.0,4.0,4.0
59.0,0.0,4330.256410256412,4331.282051282053,4249.743589743592,4258.97435897436,4187.692307692309,4176.923076923078,4290.256410256412,4186.153846153848,4203.589743589745,4190.256410256412,4213.333333333335,4279.487179487181,4297.94871794872,4358.97435897436,0.0,2027.0,2041.0,0.0,0.0,4.0,4.0,4.0,4.0,0.0,4.0,4.0,4.0,4.0,3.0,4.0,4.0,4.0,4.0,4.0,4.0
60.0,0.0,4326.666666666668,4331.282051282053,4250.769230769232,4251.794871794873,4185.128205128207,4167.692307692309,4333.333333333335,4180.000000000002,4196.923076923078,4184.615384615386,4208.20512820513,4283.076923076925,4288.71794871795,4356.410256410258,0.0,2027.0,2039.0,0.0,0.0,4.0,4.0,4.0,4.0,0.0,4.0,4.0,4.0,4.0,3.0,4.0,4.0,4.0,4.0,4.0,4.0
61.0,0.0,4335.897435897437,4336.923076923078,4260.512820512822,4270.256410256412,4183.076923076925,4170.769230769232,4383.589743589745,4185.641025641027,4204.615384615386,4187.692307692309,4220.000000000002,4296.410256410258,4302.051282051283,4367.692307692309,0.0,2025.0,2034.0,0.0,0.0,4.0,4.0,4.0,4.0,0.0,4.0,4.0,4.0,4.0,3.0,4.0,4.0,4.0,4.0,4.0,4.0
62.0,0.0,4321.0256410256425,4295.897435897437,4256.923076923078,4268.20512820513,4184.615384615386,4171.282051282053,4359.487179487181,4173.846153846155,4203.076923076925,4188.71794871795,4212.8205128205145,4289.743589743592,4292.307692307694,4346.666666666668,0.0,2025.0,2033.0,0.0,0.0,4.0,4.0,4.0,4.0,0.0,4.0,4.0,4.0,4.0,3.0,4.0,4.0,4.0,4.0,4.0,4.0
63.0,0.0,4296.923076923078,4276.923076923078,4241.538461538463,4243.076923076925,4184.615384615386,4164.615384615386,4290.769230769232,4162.564102564104,4193.846153846155,4183.589743589745,4196.923076923078,4275.384615384617,4262.564102564104,4314.871794871797,0.0,2026.0,2029.0,0.0,0.0,4.0,4.0,4.0,4.0,0.0,4.0,4.0,4.0,4.0,3.0,4.0,4.0,4.0,4.0,4.0,4.0
64.0,0.0,4298.46153846154,4317.435897435899,4236.923076923078,4240.000000000002,4182.051282051283,4168.71794871795,4282.564102564104,4178.97435897436,4199.487179487181,4185.128205128207,4206.666666666668,4270.769230769232,4263.589743589745,4315.384615384617,809.0,2026.0,2028.0,0.0,0.0,4.0,4.0,4.0,4.0,0.0,4.0,4.0,4.0,4.0,3.0,4.0,4.0,4.0,4.0,4.0,4.0
65.0,0.0,4286.153846153848,4302.051282051283,4231.794871794873,4238.46153846154,4181.538461538463,4173.846153846155,4309.23076923077,4190.769230769232,4207.692307692309,4189.23076923077,4213.333333333335,4260.512820512822,4262.051282051283,4306.666666666668,845.0,2027.0,2029.0,0.0,0.0,4.0,4.0,4.0,4.0,0.0,4.0,4.0,4.0,4.0,3.0,4.0,4.0,4.0,4.0,4.0,4.0
66.0,0.0,4241.538461538463,4222.564102564104,4213.333333333335,4213.846153846155,4184.615384615386,4167.692307692309,4292.8205128205145,4178.46153846154,4201.0256410256425,4184.102564102565,4198.46153846154,4240.000000000002,4219.487179487181,4269.23076923077,836.0,2028.0,2030.0,0.0,0.0,4.0,4.0,4.0,4.0,0.0,4.0,4.0,4.0,4.0,3.0,4.0,4.0,4.0,4.0,4.0,4.0
67.0,0.0,4221.0256410256425,4204.615384615386,4202.564102564104,4197.94871794872,4183.076923076925,4168.20512820513,4275.384615384617,4177.435897435899,4199.487179487181,4185.128205128207,4196.923076923078,4232.307692307694,4194.871794871797,4248.20512820513,839.0,2028.0,2030.0,0.0,0.0,4.0,4.0,4.0,4.0,0.0,4.0,4.0,4.0,4.0,3.0,4.0,4.0,4.0,4.0,4.0,4.0
68.0,0.0,4220.512820512822,4220.512820512822,4203.589743589745,4206.666666666668,4177.94871794872,4178.46153846154,4284.615384615386,4192.8205128205145,4211.282051282053,4193.333333333335,4209.23076923077,4231.282051282053,4209.743589743592,4236.410256410258,0.0,2029.0,2032.0,0.0,0.0,4.0,4.0,4.0,4.0,0.0,4.0,4.0,4.0,4.0,3.0,4.0,4.0,4.0,4.0,4.0,4.0
69.0,0.0,4193.333333333335,4187.692307692309,4190.769230769232,4201.538461538463,4183.589743589745,4176.923076923078,4216.923076923078,4187.179487179489,4206.153846153848,4192.307692307694,4199.487179487181,4212.8205128205145,4201.538461538463,4205.641025641027,640.0,2031.0,2033.0,0.0,0.0,4.0,4.0,4.0,4.0,0.0,4.0,4.0,4.0,4.0,3.0,4.0,4.0,4.0,4.0,4.0,4.0
70.0,0.0,4159.487179487181,4161.538461538463,4167.692307692309,4175.897435897437,4187.692307692309,4165.641025641027,4135.384615384617,4165.641025641027,4185.641025641027,4183.589743589745,4178.46153846154,4187.179487179489,4157.94871794872,4169.743589743592,777.0,2031.0,2039.0,0.0,0.0,4.0,4.0,4.0,4.0,0.0,4.0,4.0,4.0,4.0,3.0,4.0,4.0,4.0,4.0,4.0,4.0
71.0,0.0,4149.743589743592,4165.128205128207,4160.000000000002,4161.538461538463,4181.538461538463,4166.153846153848,4170.769230769232,4168.20512820513,4179.487179487181,4182.051282051283,4171.282051282053,4176.923076923078,4131.282051282053,4149.23076923077,860.0,2033.0,2041.0,0.0,0.0,4.0,4.0,4.0,4.0,0.0,4.0,4.0,4.0,4.0,3.0,4.0,4.0,4.0,4.0,4.0,4.0
72.0,0.0,4151.794871794873,4159.487179487181,4170.256410256412,4165.641025641027,4182.564102564104,4177.435897435899,4203.076923076925,4184.102564102565,4186.153846153848,4185.128205128207,4174.871794871797,4183.076923076925,4134.871794871797,4146.153846153848,770.0,2036.0,2046.0,0.0,0.0,4.0,4.0,4.0,4.0,0.0,4.0,4.0,4.0,4.0,3.0,4.0,4.0,4.0,4.0,4.0,4.0
73.0,0.0,4150.256410256412,4155.897435897437,4177.94871794872,4175.897435897437,4187.179487179489,4185.128205128207,4170.769230769232,4187.692307692309,4193.333333333335,4185.641025641027,4180.512820512822,4193.333333333335,4142.564102564104,4150.769230769232,242.0,2036.0,2048.0,0.0,0.0,4.0,4.0,4.0,4.0,0.0,4.0,4.0,4.0,4.0,3.0,4.0,4.0,4.0,4.0,4.0,4.0
74.0,0.0,4150.769230769232,4165.128205128207,4172.307692307694,4181.0256410256425,4186.153846153848,4186.153846153848,4178.97435897436,4185.128205128207,4195.897435897437,4184.615384615386,4185.128205128207,4197.94871794872,4142.051282051283,4150.769230769232,861.0,2038.0,2053.0,0.0,0.0,4.0,4.0,4.0,4.0,0.0,4.0,4.0,4.0,4.0,3.0,4.0,4.0,4.0,4.0,4.0,4.0
75.0,0.0,4149.23076923077,4161.0256410256425,4162.564102564104,4179.487179487181,4184.102564102565,4184.102564102565,4223.589743589745,4185.128205128207,4191.794871794873,4184.102564102565,4186.666666666668,4191.282051282053,4138.46153846154,4145.641025641027,820.0,2038.0,2055.0,0.0,0.0,4.0,4.0,4.0,4.0,0.0,4.0,4.0,4.0,4.0,3.0,4.0,4.0,4.0,4.0,4.0,4.0
76.0,0.0,4139.487179487181,4146.153846153848,4156.923076923078,4172.307692307694,4183.076923076925,4180.000000000002,4230.256410256412,4182.051282051283,4187.692307692309,4183.589743589745,4184.102564102565,4182.564102564104,4137.94871794872,4140.000000000002,842.0,2040.0,2058.0,0.0,0.0,4.0,4.0,4.0,4.0,0.0,4.0,4.0,4.0,4.0,3.0,4.0,4.0,4.0,4.0,4.0,4.0
77.0,0.0,4131.794871794873,4136.410256410258,4158.97435897436,4165.128205128207,4184.615384615386,4181.538461538463,4213.333333333335,4180.512820512822,4187.179487179489,4183.076923076925,4180.512820512822,4181.538461538463,4134.3589743589755,4132.307692307694,847.0,2042.0,2062.0,0.0,0.0,4.0,4.0,4.0,4.0,0.0,4.0,4.0,4.0,4.0,3.0,4.0,4.0,4.0,4.0,4.0,4.0
78.0,0.0,4130.256410256412,4132.307692307694,4163.076923076925,4159.487179487181,4185.128205128207,4181.538461538463,4186.666666666668,4182.564102564104,4188.71794871795,4185.128205128207,4175.897435897437,4176.923076923078,4128.71794871795,4128.71794871795,861.0,2040.0,2064.0,0.0,0.0,4.0,4.0,4.0,4.0,0.0,4.0,4.0,4.0,4.0,3.0,4.0,4.0,4.0,4.0,4.0,4.0
79.0,0.0,4124.615384615386,4129.743589743592,4156.410256410258,4154.3589743589755,4182.051282051283,4174.3589743589755,4172.307692307694,4177.435897435899,4184.102564102565,4181.538461538463,4171.282051282053,4168.20512820513,4123.589743589745,4126.666666666668,820.0,2043.0,2066.0,0.0,0.0,4.0,4.0,4.0,4.0,0.0,4.0,4.0,4.0,4.0,3.0,4.0,4.0,4.0,4.0,4.0,4.0
80.0,0.0,4114.871794871797,4123.589743589745,4144.615384615386,4149.743589743592,4178.46153846154,4165.641025641027,4193.846153846155,4165.641025641027,4171.794871794873,4172.307692307694,4166.666666666668,4165.128205128207,4116.923076923078,4121.538461538463,842.0,2042.0,2067.0,0.0,0.0,4.0,4.0,4.0,4.0,0.0,4.0,4.0,4.0,4.0,3.0,4.0,4.0,4.0,4.0,4.0,4.0
81.0,0.0,4121.538461538463,4122.564102564104,4148.71794871795,4154.3589743589755,4178.46153846154,4165.641025641027,4193.846153846155,4169.743589743592,4169.23076923077,4174.3589743589755,4163.076923076925,4171.282051282053,4127.692307692309,4126.666666666668,847.0,2042.0,2069.0,0.0,0.0,4.0,4.0,4.0,4.0,0.0,4.0,4.0,4.0,4.0,3.0,4.0,4.0,4.0,4.0,4.0,4.0
82.0,0.0,4148.71794871795,4141.0256410256425,4169.23076923077,4174.871794871797,4183.589743589745,4170.769230769232,4177.435897435899,4186.153846153848,4185.128205128207,4183.589743589745,4173.846153846155,4183.076923076925,4156.923076923078,4151.282051282053,861.0,2044.0,2069.0,0.0,0.0,4.0,4.0,4.0,4.0,0.0,4.0,4.0,4.0,4.0,3.0,4.0,4.0,4.0,4.0,4.0,4.0
83.0,0.0,4174.871794871797,4166.153846153848,4178.97435897436,4186.666666666668,4185.128205128207,4170.256410256412,4196.923076923078,4185.641025641027,4189.743589743592,4182.051282051283,4184.615384615386,4194.871794871797,4175.384615384617,4182.051282051283,820.0,2045.0,2069.0,0.0,0.0,4.0,4.0,4.0,4.0,0.0,4.0,4.0,4.0,4.0,3.0,4.0,4.0,4.0,4.0,4.0,4.0
84.0,0.0,4201.0256410256425,4197.94871794872,4184.615384615386,4194.871794871797,4181.0256410256425,4168.20512820513,4223.589743589745,4173.846153846155,4182.051282051283,4180.512820512822,4182.564102564104,4211.794871794873,4193.333333333335,4216.410256410258,842.0,2044.0,2070.0,0.0,0.0,4.0,4.0,4.0,4.0,0.0,4.0,4.0,4.0,4.0,3.0,4.0,4.0,4.0,4.0,4.0,4.0
85.0,0.0,4253.846153846155,4247.692307692309,4218.97435897436,4229.743589743592,4183.076923076925,4174.871794871797,4225.641025641027,4176.410256410258,4188.71794871795,4187.692307692309,4188.71794871795,4240.512820512822,4234.3589743589755,4271.282051282053,847.0,2043.0,2067.0,0.0,0.0,4.0,4.0,4.0,4.0,0.0,4.0,4.0,4.0,4.0,3.0,4.0,4.0,4.0,4.0,4.0,4.0
86.0,0.0,4306.153846153848,4297.94871794872,4258.97435897436,4269.23076923077,4188.71794871795,4185.128205128207,4232.307692307694,4195.384615384617,4206.153846153848,4189.743589743592,4209.23076923077,4270.256410256412,4269.743589743592,4323.076923076925,861.0,2041.0,2065.0,0.0,0.0,4.0,4.0,4.0,4.0,0.0,4.0,4.0,4.0,4.0,3.0,4.0,4.0,4.0,4.0,4.0,4.0
87.0,0.0,4330.769230769232,4324.102564102565,4271.794871794873,4280.512820512822,4189.743589743592,4188.20512820513,4228.71794871795,4211.282051282053,4215.897435897437,4186.666666666668,4222.564102564104,4292.307692307694,4285.641025641027,4349.743589743592,820.0,2039.0,2064.0,0.0,0.0,4.0,4.0,4.0,4.0,0.0,4.0,4.0,4.0,4.0,3.0,4.0,4.0,4.0,4.0,4.0,4.0
88.0,0.0,4344.102564102565,4322.051282051283,4275.897435897437,4282.051282051283,4185.128205128207,4187.179487179489,4226.153846153848,4209.23076923077,4219.487179487181,4188.71794871795,4222.051282051283,4304.102564102565,4297.435897435899,4367.179487179488,842.0,2038.0,2063.0,0.0,0.0,4.0,4.0,4.0,4.0,0.0,4.0,4.0,4.0,4.0,3.0,4.0,4.0,4.0,4.0,4.0,4.0
89.0,0.0,4344.615384615386,4314.871794871797,4276.923076923078,4283.076923076925,4188.20512820513,4187.179487179489,4248.20512820513,4198.46153846154,4215.384615384617,4190.256410256412,4218.97435897436,4297.94871794872,4295.384615384617,4367.692307692309,847.0,2038.0,2062.0,0.0,0.0,4.0,4.0,4.0,4.0,0.0,4.0,4.0,4.0,4.0,3.0,4.0,4.0,4.0,4.0,4.0,4.0
90.0,0.0,4323.589743589745,4310.769230769232,4267.179487179489,4273.846153846155,4190.769230769232,4184.102564102565,4234.3589743589755,4196.923076923078,4209.23076923077,4188.71794871795,4216.410256410258,4288.20512820513,4279.487179487181,4343.589743589745,861.0,2034.0,2063.0,0.0,0.0,4.0,4.0,4.0,4.0,0.0,4.0,4.0,4.0,4.0,3.0,4.0,4.0,4.0,4.0,4.0,4.0
91.0,0.0,4301.0256410256425,4281.0256410256425,4255.384615384617,4259.487179487181,4182.564102564104,4182.051282051283,4202.051282051283,4200.000000000002,4211.282051282053,4186.666666666668,4212.307692307694,4283.076923076925,4263.589743589745,4319.487179487181,820.0,2034.0,2062.0,0.0,0.0,4.0,4.0,4.0,4.0,0.0,4.0,4.0,4.0,4.0,3.0,4.0,4.0,4.0,4.0,4.0,4.0
92.0,0.0,4283.076923076925,4248.20512820513,4246.153846153848,4241.0256410256425,4184.102564102565,4182.051282051283,4235.897435897437,4193.846153846155,4213.333333333335,4186.153846153848,4204.102564102565,4264.615384615386,4246.666666666668,4298.46153846154,842.0,2033.0,2062.0,0.0,0.0,4.0,4.0,4.0,4.0,0.0,4.0,4.0,4.0,4.0,3.0,4.0,4.0,4.0,4.0,4.0,4.0
93.0,0.0,4255.897435897437,4243.589743589745,4232.307692307694,4225.128205128207,4189.23076923077,4180.512820512822,4269.23076923077,4185.641025641027,4206.666666666668,4187.692307692309,4194.871794871797,4240.000000000002,4224.615384615386,4267.692307692309,847.0,2031.0,2059.0,0.0,0.0,4.0,4.0,4.0,4.0,0.0,4.0,4.0,4.0,4.0,3.0,4.0,4.0,4.0,4.0,4.0,4.0
94.0,0.0,4224.615384615386,4228.20512820513,4212.307692307694,4214.3589743589755,4185.128205128207,4175.384615384617,4204.102564102565,4176.410256410258,4191.794871794873,4180.000000000002,4185.128205128207,4222.564102564104,4197.94871794872,4230.769230769232,861.0,2030.0,2058.0,0.0,0.0,4.0,4.0,4.0,4.0,0.0,4.0,4.0,4.0,4.0,3.0,4.0,4.0,4.0,4.0,4.0,4.0
95.0,0.0,4204.102564102565,4188.71794871795,4196.410256410258,4202.051282051283,4183.076923076925,4173.846153846155,4131.794871794873,4174.3589743589755,4183.589743589745,4172.8205128205145,4178.97435897436,4211.794871794873,4175.897435897437,4206.153846153848,820.0,2030.0,2058.0,0.0,0.0,4.0,4.0,4.0,4.0,0.0,4.0,4.0,4.0,4.0,3.0,4.0,4.0,4.0,4.0,4.0,4.0
96.0,0.0,4187.692307692309,4167.179487179489,4182.051282051283,4187.692307692309,4183.589743589745,4174.3589743589755,4149.743589743592,4184.102564102565,4188.71794871795,4176.410256410258,4177.94871794872,4201.0256410256425,4168.71794871795,4189.23076923077,842.0,2029.0,2058.0,0.0,0.0,4.0,4.0,4.0,4.0,0.0,4.0,4.0,4.0,4.0,3.0,4.0,4.0,4.0,4.0,4.0,4.0
97.0,0.0,4169.23076923077,4160.000000000002,4166.153846153848,4182.564102564104,4183.589743589745,4171.794871794873,4180.000000000002,4185.641025641027,4189.743589743592,4175.897435897437,4172.8205128205145,4186.153846153848,4158.46153846154,4166.153846153848,847.0,2029.0,2058.0,0.0,0.0,4.0,4.0,4.0,4.0,0.0,4.0,4.0,4.0,4.0,3.0,4.0,4.0,4.0,4.0,4.0,4.0
98.0,0.0,4160.000000000002,4152.8205128205145,4166.666666666668,4188.20512820513,4184.102564102565,4175.384615384617,4147.692307692309,4182.051282051283,4190.256410256412,4177.94871794872,4174.871794871797,4178.97435897436,4142.051282051283,4150.769230769232,861.0,2028.0,2061.0,0.0,0.0,4.0,4.0,4.0,4.0,0.0,4.0,4.0,4.0,4.0,3.0,4.0,4.0,4.0,4.0,4.0,4.0
99.0,0.0,4155.897435897437,4153.333333333335,4172.8205128205145,4182.051282051283,4185.128205128207,4178.46153846154,4102.051282051283,4185.128205128207,4193.846153846155,4181.538461538463,4182.051282051283,4179.487179487181,4136.410256410258,4143.589743589745,820.0,2029.0,2056.0,0.0,0.0,4.0,4.0,4.0,4.0,0.0,4.0,4.0,4.0,4.0,3.0,4.0,4.0,4.0,4.0,4.0,4.0
100.0,0.0,4145.641025641027,4148.20512820513,4167.692307692309,4169.23076923077,4182.564102564104,4175.384615384617,4095.8974358974374,4183.589743589745,4191.282051282053,4176.923076923078,4177.435897435899,4175.384615384617,4130.769230769232,4133.846153846155,842.0,2030.0,2053.0,0.0,0.0,4.0,4.0,4.0,4.0,0.0,4.0,4.0,4.0,4.0,3.0,4.0,4.0,4.0,4.0,4.0,4.0
101.0,0.0,4133.846153846155,4130.769230769232,4161.0256410256425,4168.71794871795,4184.615384615386,4170.769230769232,4115.384615384617,4182.564102564104,4185.641025641027,4174.3589743589755,4170.769230769232,4167.692307692309,4121.0256410256425,4122.051282051283,847.0,2030.0,2045.0,0.0,0.0,4.0,4.0,4.0,4.0,0.0,4.0,4.0,4.0,4.0,3.0,4.0,4.0,4.0,4.0,4.0,4.0
102.0,0.0,4121.538461538463,4118.46153846154,4158.46153846154,4163.589743589745,4191.282051282053,4170.256410256412,4140.000000000002,4180.000000000002,4184.615384615386,4173.846153846155,4170.769230769232,4161.538461538463,4114.3589743589755,4111.282051282053,861.0,2031.0,2043.0,0.0,0.0,4.0,4.0,4.0,4.0,0.0,4.0,4.0,4.0,4.0,3.0,4.0,4.0,4.0,4.0,4.0,4.0
103.0,0.0,4115.897435897437,4115.897435897437,4156.923076923078,4155.897435897437,4188.20512820513,4173.846153846155,4130.256410256412,4170.769230769232,4183.076923076925,4170.769230769232,4166.666666666668,4157.435897435899,4109.743589743592,4107.179487179489,820.0,2031.0,2041.0,0.0,0.0,4.0,4.0,4.0,4.0,0.0,4.0,4.0,4.0,4.0,3.0,4.0,4.0,4.0,4.0,4.0,4.0
104.0,0.0,4120.512820512822,4120.000000000002,4160.512820512822,4168.71794871795,4178.97435897436,4180.000000000002,4123.589743589745,4174.871794871797,4187.179487179489,4171.794871794873,4165.128205128207,4164.102564102565,4111.794871794873,4114.3589743589755,842.0,2034.0,2042.0,0.0,0.0,4.0,4.0,4.0,4.0,0.0,4.0,4.0,4.0,4.0,3.0,4.0,4.0,4.0,4.0,4.0,4.0
105.0,0.0,4124.102564102565,4126.666666666668,4165.641025641027,4181.0256410256425,4180.000000000002,4184.615384615386,4182.564102564104,4189.23076923077,4196.923076923078,4177.435897435899,4173.333333333335,4172.307692307694,4123.589743589745,4119.487179487181,847.0,2035.0,2038.0,0.0,0.0,4.0,4.0,4.0,4.0,0.0,4.0,4.0,4.0,4.0,3.0,4.0,4.0,4.0,4.0,4.0,4.0
106.0,0.0,4115.897435897437,4122.564102564104,4154.3589743589755,4161.0256410256425,4185.128205128207,4181.0256410256425,4218.46153846154,4188.20512820513,4192.8205128205145,4175.384615384617,4170.769230769232,4160.000000000002,4124.615384615386,4110.256410256412,861.0,2034.0,2035.0,0.0,0.0,4.0,4.0,4.0,4.0,0.0,4.0,4.0,4.0,4.0,3.0,4.0,4.0,4.0,4.0,4.0,4.0
107.0,0.0,4111.794871794873,4113.333333333335,4138.97435897436,4146.153846153848,4185.128205128207,4182.564102564104,4185.641025641027,4182.051282051283,4186.153846153848,4170.256410256412,4165.641025641027,4149.743589743592,4117.94871794872,4104.102564102565,820.0,2037.0,2031.0,0.0,0.0,4.0,4.0,4.0,4.0,0.0,4.0,4.0,4.0,4.0,3.0,4.0,4.0,4.0,4.0,4.0,4.0
108.0,0.0,4117.94871794872,4117.94871794872,4143.076923076925,4164.102564102565,4181.0256410256425,4188.20512820513,4184.102564102565,4185.641025641027,4189.23076923077,4173.846153846155,4172.307692307694,4162.051282051283,4121.538461538463,4111.794871794873,842.0,2036.0,2028.0,0.0,0.0,4.0,4.0,4.0,4.0,0.0,4.0,4.0,4.0,4.0,3.0,4.0,4.0,4.0,4.0,4.0,4.0
109.0,0.0,4115.897435897437,4122.051282051283,4149.743589743592,4171.282051282053,4178.46153846154,4186.666666666668,4209.743589743592,4187.692307692309,4188.71794871795,4178.46153846154,4172.8205128205145,4166.153846153848,4124.615384615386,4112.8205128205145,847.0,2037.0,2027.0,0.0,0.0,4.0,4.0,4.0,4.0,0.0,4.0,4.0,4.0,4.0,3.0,4.0,4.0,4.0,4.0,4.0,4.0
110.0,0.0,4108.71794871795,4115.384615384617,4146.666666666668,4156.410256410258,4180.512820512822,4184.615384615386,4191.282051282053,4185.128205128207,4185.641025641027,4175.384615384617,4166.666666666668,4156.923076923078,4122.564102564104,4104.615384615386,861.0,2036.0,2029.0,0.0,0.0,4.0,4.0,4.0,4.0,0.0,4.0,4.0,4.0,4.0,3.0,4.0,4.0,4.0,4.0,4.0,4.0
111.0,0.0,4108.20512820513,4115.897435897437,4144.615384615386,4153.333333333335,4182.564102564104,4186.153846153848,4166.153846153848,4186.666666666668,4187.179487179489,4169.23076923077,4167.692307692309,4155.384615384617,4123.589743589745,4102.051282051283,820.0,2038.0,2031.0,0.0,0.0,4.0,4.0,4.0,4.0,0.0,4.0,4.0,4.0,4.0,3.0,4.0,4.0,4.0,4.0,4.0,4.0
112.0,0.0,4105.128205128207,4121.538461538463,4144.615384615386,4156.923076923078,4181.538461538463,4181.538461538463,4152.8205128205145,4184.615384615386,4184.102564102565,4169.23076923077,4165.641025641027,4152.8205128205145,4119.487179487181,4101.538461538463,842.0,2036.0,2033.0,0.0,0.0,4.0,4.0,4.0,4.0,0.0,4.0,4.0,4.0,4.0,3.0,4.0,4.0,4.0,4.0,4.0,4.0
113.0,0.0,4102.051282051283,4120.000000000002,4146.153846153848,4154.3589743589755,4179.487179487181,4176.410256410258,4129.23076923077,4181.538461538463,4182.051282051283,4171.282051282053,4162.564102564104,4152.8205128205145,4123.076923076925,4104.102564102565,847.0,2035.0,2033.0,0.0,0.0,4.0,4.0,4.0,4.0,0.0,4.0,4.0,4.0,4.0,3.0,4.0,4.0,4.0,4.0,4.0,4.0
114.0,0.0,4112.8205128205145,4126.666666666668,4155.384615384617,4160.512820512822,4180.512820512822,4181.0256410256425,4130.256410256412,4184.615384615386,4191.794871794873,4173.846153846155,4172.8205128205145,4169.743589743592,4142.564102564104,4116.410256410258,861.0,2035.0,2036.0,0.0,0.0,4.0,4.0,4.0,4.0,0.0,4.0,4.0,4.0,4.0,3.0,4.0,4.0,4.0,4.0,4.0,4.0
115.0,0.0,4125.128205128207,4136.410256410258,4168.20512820513,4168.71794871795,4183.076923076925,4185.128205128207,4154.871794871797,4187.692307692309,4195.897435897437,4175.897435897437,4177.94871794872,4180.000000000002,4147.692307692309,4125.641025641027,820.0,2034.0,2037.0,0.0,0.0,4.0,4.0,4.0,4.0,0.0,4.0,4.0,4.0,4.0,3.0,4.0,4.0,4.0,4.0,4.0,4.0
116.0,0.0,4123.589743589745,4133.846153846155,4169.23076923077,4166.666666666668,4180.000000000002,4183.076923076925,4173.333333333335,4186.153846153848,4187.692307692309,4173.846153846155,4174.3589743589755,4171.794871794873,4141.538461538463,4123.589743589745,842.0,2031.0,2042.0,0.0,0.0,4.0,4.0,4.0,4.0,0.0,4.0,4.0,4.0,4.0,3.0,4.0,4.0,4.0,4.0,4.0,4.0
117.0,0.0,4123.076923076925,4134.871794871797,4161.538461538463,4167.179487179489,4179.487179487181,4180.512820512822,4219.487179487181,4186.666666666668,4188.71794871795,4176.923076923078,4178.46153846154,4170.769230769232,4148.71794871795,4120.512820512822,847.0,2032.0,2045.0,0.0,0.0,4.0,4.0,4.0,4.0,0.0,4.0,4.0,4.0,4.0,3.0,4.0,4.0,4.0,4.0,4.0,4.0
118.0,0.0,4129.23076923077,4145.128205128207,4161.0256410256425,4174.871794871797,4183.589743589745,4180.512820512822,4276.410256410258,4188.20512820513,4201.0256410256425,4185.641025641027,4187.179487179489,4177.435897435899,4157.94871794872,4123.589743589745,861.0,2047.0,2052.0,0.0,0.0,4.0,4.0,4.0,4.0,0.0,4.0,4.0,4.0,4.0,3.0,4.0,4.0,4.0,4.0,4.0,4.0
119.0,0.0,4125.641025641027,4144.615384615386,4161.538461538463,4172.307692307694,4181.0256410256425,4183.076923076925,4284.615384615386,4187.692307692309,4198.97435897436,4186.153846153848,4185.128205128207,4174.3589743589755,4155.897435897437,4122.051282051283,820.0,2031.0,2055.0,0.0,0.0,4.0,4.0,4.0,4.0,0.0,4.0,4.0,4.0,4.0,3.0,4.0,4.0,4.0,4.0,4.0,4.0
120.0,0.0,4120.000000000002,4137.94871794872,4159.487179487181,4164.615384615386,4181.0256410256425,4185.641025641027,4257.94871794872,4186.666666666668,4187.692307692309,4178.97435897436,4173.846153846155,4169.743589743592,4151.282051282053,4119.487179487181,842.0,2032.0,2057.0,0.0,0.0,4.0,4.0,4.0,4.0,0.0,4.0,4.0,4.0,4.0,3.0,4.0,4.0,4.0,4.0,4.0,4.0
121.0,0.0,4122.564102564104,4140.000000000002,4156.923076923078,4163.076923076925,4185.641025641027,4183.076923076925,4213.333333333335,4185.641025641027,4185.128205128207,4175.384615384617,4169.23076923077,4170.769230769232,4146.153846153848,4120.000000000002,847.0,2030.0,2058.0,0.0,0.0,4.0,4.0,4.0,4.0,0.0,4.0,4.0,4.0,4.0,3.0,4.0,4.0,4.0,4.0,4.0,4.0
122.0,0.0,4128.71794871795,4150.256410256412,4156.410256410258,4171.282051282053,4183.076923076925,4182.051282051283,4180.512820512822,4193.333333333335,4187.692307692309,4177.94871794872,4178.97435897436,4173.846153846155,4148.71794871795,4123.076923076925,861.0,2031.0,2058.0,0.0,0.0,4.0,4.0,4.0,4.0,0.0,4.0,4.0,4.0,4.0,3.0,4.0,4.0,4.0,4.0,4.0,4.0
123.0,0.0,4129.23076923077,4151.794871794873,4152.307692307694,4177.435897435899,4178.97435897436,4185.128205128207,4199.487179487181,4197.435897435899,4189.743589743592,4179.487179487181,4183.589743589745,4174.3589743589755,4150.769230769232,4125.128205128207,820.0,2032.0,2058.0,0.0,0.0,4.0,4.0,4.0,4.0,0.0,4.0,4.0,4.0,4.0,3.0,4.0,4.0,4.0,4.0,4.0,4.0
124.0,0.0,4121.0256410256425,4140.512820512822,4143.589743589745,4168.20512820513,4178.46153846154,4183.589743589745,4228.71794871795,4190.769230769232,4185.128205128207,4172.8205128205145,4174.871794871797,4167.692307692309,4139.487179487181,4117.435897435899,842.0,2035.0,2059.0,0.0,0.0,4.0,4.0,4.0,4.0,0.0,4.0,4.0,4.0,4.0,3.0,4.0,4.0,4.0,4.0,4.0,4.0
125.0,0.0,4120.512820512822,4142.564102564104,4149.23076923077,4164.615384615386,4182.051282051283,4183.076923076925,4231.794871794873,4196.410256410258,4183.076923076925,4171.794871794873,4177.94871794872,4168.20512820513,4141.0256410256425,4116.410256410258,847.0,2035.0,2059.0,0.0,0.0,4.0,4.0,4.0,4.0,0.0,4.0,4.0,4.0,4.0,3.0,4.0,4.0,4.0,4.0,4.0,4.0
126.0,0.0,4133.846153846155,4155.384615384617,4162.051282051283,4175.897435897437,4184.102564102565,4183.589743589745,4236.923076923078,4205.128205128207,4194.3589743589755,4180.000000000002,4188.71794871795,4178.97435897436,4155.384615384617,4131.282051282053,861.0,2037.0,2058.0,0.0,0.0,4.0,4.0,4.0,4.0,0.0,4.0,4.0,4.0,4.0,3.0,4.0,4.0,4.0,4.0,4.0,4.0
127.0,0.0,4138.97435897436,4158.46153846154,4156.410256410258,4183.076923076925,4182.564102564104,4180.000000000002,4261.538461538463,4204.102564102565,4203.589743589745,4184.615384615386,4191.282051282053,4184.102564102565,4161.538461538463,4136.923076923078,820.0,2040.0,2057.0,0.0,0.0,4.0,4.0,4.0,4.0,0.0,4.0,4.0,4.0,4.0,3.0,4.0,4.0,4.0,4.0,4.0,4.0
128.0,0.0,4139.487179487181,4160.000000000002,4155.384615384617,4183.076923076925,4183.589743589745,4183.589743589745,4297.94871794872,4211.282051282053,4205.128205128207,4186.153846153848,4197.94871794872,4188.71794871795,4165.128205128207,4138.46153846154,842.0,2040.0,2055.0,0.0,0.0,4.0,4.0,4.0,4.0,0.0,4.0,4.0,4.0,4.0,3.0,4.0,4.0,4.0,4.0,4.0,4.0
0.0,0.0,4148.71794871795,4161.538461538463,4168.20512820513,4188.20512820513,4184.615384615386,4187.692307692309,4295.897435897437,4217.94871794872,4206.666666666668,4185.641025641027,4200.512820512822,4194.871794871797,4172.8205128205145,4150.256410256412,809.0,2041.0,2053.0,0.0,0.0,4.0,4.0,4.0,4.0,0.0,4.0,4.0,4.0,4.0,3.0,4.0,4.0,4.0,4.0,4.0,4.0
1.0,0.0,4145.128205128207,4155.897435897437,4164.102564102565,4188.71794871795,4184.615384615386,4178.46153846154,4254.871794871797,4201.538461538463,4200.512820512822,4183.076923076925,4189.23076923077,4191.282051282053,4165.641025641027,4149.23076923077,845.0,2043.0,2052.0,0.0,0.0,4.0,4.0,4.0,4.0,0.0,4.0,4.0,4.0,4.0,3.0,4.0,4.0,4.0,4.0,4.0,4.0
2.0,0.0,4132.8205128205145,4149.743589743592,4149.743589743592,4175.384615384617,4185.128205128207,4174.3589743589755,4228.20512820513,4191.794871794873,4191.794871794873,4183.076923076925,4182.564102564104,4183.589743589745,4153.333333333335,4139.487179487181,836.0,2044.0,2053.0,0.0,0.0,4.0,4.0,4.0,4.0,0.0,4.0,4.0,4.0,4.0,3.0,4.0,4.0,4.0,4.0,4.0,4.0
3.0,0.0,4131.794871794873,4150.769230769232,4148.20512820513,4168.20512820513,4183.076923076925,4179.487179487181,4192.8205128205145,4201.0256410256425,4195.384615384617,4183.076923076925,4185.128205128207,4181.538461538463,4157.94871794872,4143.076923076925,838.0,2044.0,2051.0,0.0,0.0,4.0,4.0,4.0,4.0,0.0,4.0,4.0,4.0,4.0,3.0,4.0,4.0,4.0,4.0,4.0,4.0
4.0,0.0,4141.538461538463,4152.8205128205145,4157.435897435899,4176.923076923078,4184.615384615386,4180.512820512822,4151.282051282053,4205.128205128207,4203.076923076925,4184.615384615386,4193.333333333335,4186.153846153848,4168.71794871795,4150.256410256412,0.0,2044.0,2050.0,0.0,0.0,4.0,4.0,4.0,4.0,0.0,4.0,4.0,4.0,4.0,3.0,4.0,4.0,4.0,4.0,4.0,4.0
5.0,0.0,4149.23076923077,4159.487179487181,4165.128205128207,4187.179487179489,4185.128205128207,4181.538461538463,4163.076923076925,4203.589743589745,4204.615384615386,4186.666666666668,4201.538461538463,4192.8205128205145,4171.794871794873,4150.769230769232,640.0,2044.0,2049.0,0.0,0.0,4.0,4.0,4.0,4.0,0.0,4.0,4.0,4.0,4.0,3.0,4.0,4.0,4.0,4.0,4.0,4.0
6.0,0.0,4144.615384615386,4160.000000000002,4162.051282051283,4185.128205128207,4183.076923076925,4184.102564102565,4189.23076923077,4200.000000000002,4199.487179487181,4184.615384615386,4195.897435897437,4191.282051282053,4162.564102564104,4147.179487179489,790.0,2044.0,2047.0,0.0,0.0,4.0,4.0,4.0,4.0,0.0,4.0,4.0,4.0,4.0,3.0,4.0,4.0,4.0,4.0,4.0,4.0
7.0,0.0,4136.410256410258,4154.3589743589755,4160.000000000002,4182.051282051283,4182.564102564104,4177.435897435899,4187.692307692309,4197.435897435899,4192.307692307694,4182.051282051283,4183.076923076925,4184.615384615386,4157.435897435899,4142.051282051283,860.0,2044.0,2046.0,0.0,0.0,4.0,4.0,4.0,4.0,0.0,4.0,4.0,4.0,4.0,3.0,4.0,4.0,4.0,4.0,4.0,4.0
8.0,0.0,4139.487179487181,4156.923076923078,4160.512820512822,4186.666666666668,4183.076923076925,4169.23076923077,4206.666666666668,4197.94871794872,4192.307692307694,4183.589743589745,4183.076923076925,4186.153846153848,4161.538461538463,4141.0256410256425,770.0,2042.0,2045.0,0.0,0.0,4.0,4.0,4.0,4.0,0.0,4.0,4.0,4.0,4.0,3.0,4.0,4.0,4.0,4.0,4.0,4.0
9.0,0.0,4143.589743589745,4159.487179487181,4158.46153846154,4182.051282051283,4184.102564102565,4172.8205128205145,4222.564102564104,4191.282051282053,4192.8205128205145,4180.000000000002,4187.179487179489,4187.692307692309,4161.538461538463,4142.564102564104,244.0,2042.0,2044.0,0.0,0.0,4.0,4.0,4.0,4.0,0.0,4.0,4.0,4.0,4.0,3.0,4.0,4.0,4.0,4.0,4.0,4.0
10.0,0.0,4132.8205128205145,4145.641025641027,4153.333333333335,4171.794871794873,4183.076923076925,4173.846153846155,4187.179487179489,4182.051282051283,4184.615384615386,4173.333333333335,4179.487179487181,4178.97435897436,4152.307692307694,4139.487179487181,861.0,2044.0,2043.0,0.0,0.0,4.0,4.0,4.0,4.0,0.0,4.0,4.0,4.0,4.0,3.0,4.0,4.0,4.0,4.0,4.0,4.0
11.0,0.0,4118.97435897436,4124.615384615386,4142.564102564104,4164.615384615386,4182.564102564104,4168.20512820513,4162.051282051283,4180.512820512822,4177.435897435899,4169.743589743592,4168.71794871795,4166.666666666668,4138.97435897436,4128.71794871795,820.0,2045.0,2041.0,0.0,0.0,4.0,4.0,4.0,4.0,0.0,4.0,4.0,4.0,4.0,3.0,4.0,4.0,4.0,4.0,4.0,4.0
12.0,0.0,4120.512820512822,4125.128205128207,4142.051282051283,4159.487179487181,4182.051282051283,4174.3589743589755,4187.179487179489,4183.076923076925,4181.0256410256425,4172.8205128205145,4166.666666666668,4167.179487179489,4135.384615384617,4126.666666666668,842.0,2044.0,2039.0,0.0,0.0,4.0,4.0,4.0,4.0,0.0,4.0,4.0,4.0,4.0,3.0,4.0,4.0,4.0,4.0,4.0,4.0
13.0,0.0,4131.794871794873,4144.102564102565,4153.846153846155,4164.102564102565,4182.564102564104,4183.589743589745,4207.179487179489,4180.000000000002,4183.589743589745,4177.94871794872,4173.333333333335,4176.410256410258,4142.051282051283,4136.410256410258,847.0,2043.0,2038.0,0.0,0.0,4.0,4.0,4.0,4.0,0.0,4.0,4.0,4.0,4.0,3.0,4.0,4.0,4.0,4.0,4.0,4.0
14.0,0.0,4141.0256410256425,4152.8205128205145,4160.512820512822,4177.94871794872,4184.102564102565,4177.435897435899,4172.307692307694,4173.846153846155,4181.538461538463,4174.871794871797,4176.923076923078,4182.564102564104,4152.307692307694,4148.20512820513,861.0,2043.0,2039.0,0.0,0.0,4.0,4.0,4.0,4.0,0.0,4.0,4.0,4.0,4.0,3.0,4.0,4.0,4.0,4.0,4.0,4.0
15.0,0.0,4152.307692307694,4157.435897435899,4165.128205128207,4187.179487179489,4179.487179487181,4173.333333333335,4170.256410256412,4180.512820512822,4190.769230769232,4174.871794871797,4184.102564102565,4190.256410256412,4165.128205128207,4160.512820512822,820.0,2043.0,2038.0,0.0,0.0,4.0,4.0,4.0,4.0,0.0,4.0,4.0,4.0,4.0,3.0,4.0,4.0,4.0,4.0,4.0,4.0
16.0,0.0,4160.512820512822,4165.641025641027,4176.923076923078,4185.641025641027,4177.435897435899,4180.000000000002,4229.23076923077,4197.435897435899,4203.589743589745,4184.102564102565,4195.897435897437,4201.538461538463,4174.3589743589755,4166.666666666668,0.0,2043.0,2040.0,0.0,0.0,4.0,4.0,4.0,4.0,0.0,4.0,4.0,4.0,4.0,3.0,4.0,4.0,4.0,4.0,4.0,4.0
17.0,0.0,4157.435897435899,4165.128205128207,4175.897435897437,4184.615384615386,4185.128205128207,4180.000000000002,4234.871794871797,4201.0256410256425,4203.076923076925,4188.20512820513,4194.871794871797,4204.615384615386,4173.333333333335,4163.589743589745,0.0,2041.0,2041.0,0.0,0.0,4.0,4.0,4.0,4.0,0.0,4.0,4.0,4.0,4.0,3.0,4.0,4.0,4.0,4.0,4.0,4.0
18.0,0.0,4155.897435897437,4157.435897435899,4158.46153846154,4193.333333333335,4186.153846153848,4177.435897435899,4196.410256410258,4195.384615384617,4196.923076923078,4182.564102564104,4188.20512820513,4198.46153846154,4170.256410256412,4158.46153846154,0.0,2042.0,2042.0,0.0,0.0,4.0,4.0,4.0,4.0,0.0,4.0,4.0,4.0,4.0,3.0,4.0,4.0,4.0,4.0,4.0,4.0
19.0,0.0,4162.051282051283,4163.076923076925,4162.564102564104,4198.46153846154,4182.051282051283,4184.102564102565,4195.897435897437,4198.97435897436,4200.000000000002,4181.0256410256425,4192.8205128205145,4199.487179487181,4171.794871794873,4164.102564102565,0.0,2042.0,2041.0,0.0,0.0,4.0,4.0,4.0,4.0,0.0,4.0,4.0,4.0,4.0,3.0,4.0,4.0,4.0,4.0,4.0,4.0
20.0,0.0,4165.641025641027,4171.282051282053,4181.0256410256425,4191.282051282053,4184.102564102565,4187.179487179489,4173.846153846155,4203.076923076925,4204.102564102565,4183.589743589745,4199.487179487181,4205.128205128207,4176.923076923078,4169.743589743592,0.0,2043.0,2044.0,0.0,0.0,4.0,4.0,4.0,4.0,0.0,4.0,4.0,4.0,4.0,3.0,4.0,4.0,4.0,4.0,4.0,4.0
21.0,0.0,4163.076923076925,4165.641025641027,4185.641025641027,4187.179487179489,4184.615384615386,4182.564102564104,4101.538461538463,4197.94871794872,4200.512820512822,4183.589743589745,4198.97435897436,4203.589743589745,4190.769230769232,4166.153846153848,0.0,2043.0,2043.0,0.0,0.0,4.0,4.0,4.0,4.0,0.0,4.0,4.0,4.0,4.0,3.0,4.0,4.0,4.0,4.0,4.0,4.0
22.0,0.0,4164.102564102565,4165.128205128207,4187.179487179489,4194.871794871797,4183.076923076925,4188.20512820513,4089.230769230771,4198.97435897436,4202.564102564104,4185.128205128207,4200.512820512822,4202.051282051283,4198.97435897436,4168.20512820513,0.0,2046.0,2046.0,0.0,0.0,4.0,4.0,4.0,4.0,0.0,4.0,4.0,4.0,4.0,3.0,4.0,4.0,4.0,4.0,4.0,4.0
23.0,0.0,4165.641025641027,4175.384615384617,4191.794871794873,4200.512820512822,4184.102564102565,4194.871794871797,4131.794871794873,4210.769230769232,4210.769230769232,4184.615384615386,4202.051282051283,4208.71794871795,4191.794871794873,4173.846153846155,0.0,2046.0,2047.0,0.0,0.0,4.0,4.0,4.0,4.0,0.0,4.0,4.0,4.0,4.0,3.0,4.0,4.0,4.0,4.0,4.0,4.0
24.0,0.0,4170.256410256412,4179.487179487181,4190.769230769232,4202.564102564104,4187.179487179489,4191.282051282053,4147.692307692309,4216.923076923078,4212.307692307694,4185.128205128207,4198.46153846154,4213.846153846155,4186.153846153848,4175.384615384617,0.0,2046.0,2048.0,0.0,0.0,4.0,4.0,4.0,4.0,0.0,4.0,4.0,4.0,4.0,3.0,4.0,4.0,4.0,4.0,4.0,4.0
25.0,0.0,4189.23076923077,4189.743589743592,4193.333333333335,4211.794871794873,4185.128205128207,4186.666666666668,4145.128205128207,4215.384615384617,4212.307692307694,4186.153846153848,4203.589743589745,4218.97435897436,4200.512820512822,4186.666666666668,0.0,2046.0,2049.0,0.0,0.0,4.0,4.0,4.0,4.0,0.0,4.0,4.0,4.0,4.0,3.0,4.0,4.0,4.0,4.0,4.0,4.0
26.0,0.0,4211.794871794873,4215.897435897437,4205.641025641027,4224.102564102565,4182.564102564104,4187.179487179489,4153.333333333335,4214.871794871797,4214.871794871797,4186.666666666668,4212.8205128205145,4234.871794871797,4226.666666666668,4213.846153846155,0.0,2047.0,2052.0,0.0,0.0,4.0,4.0,4.0,4.0,0.0,4.0,4.0,4.0,4.0,3.0,4.0,4.0,4.0,4.0,4.0,4.0
27.0,0.0,4234.871794871797,4239.487179487181,4220.512820512822,4231.794871794873,4185.128205128207,4190.256410256412,4159.487179487181,4215.384615384617,4214.3589743589755,4186.666666666668,4215.384615384617,4250.256410256412,4244.615384615386,4243.589743589745,0.0,2047.0,2052.0,0.0,0.0,4.0,4.0,4.0,4.0,0.0,4.0,4.0,4.0,4.0,3.0,4.0,4.0,4.0,4.0,4.0,4.0
28.0,0.0,4257.435897435899,4255.897435897437,4231.282051282053,4240.512820512822,4184.102564102565,4190.769230769232,4151.282051282053,4213.846153846155,4209.23076923077,4185.641025641027,4213.333333333335,4256.923076923078,4257.435897435899,4267.179487179489,0.0,2047.0,2053.0,0.0,0.0,4.0,4.0,4.0,4.0,0.0,4.0,4.0,4.0,4.0,3.0,4.0,4.0,4.0,4.0,4.0,4.0
29.0,0.0,4285.128205128207,4284.102564102565,4243.589743589745,4260.000000000002,4182.564102564104,4189.743589743592,4147.179487179489,4214.3589743589755,4209.23076923077,4186.153846153848,4216.410256410258,4270.769230769232,4283.589743589745,4298.46153846154,0.0,2047.0,2056.0,0.0,0.0,4.0,4.0,4.0,4.0,0.0,4.0,4.0,4.0,4.0,3.0,4.0,4.0,4.0,4.0,4.0,4.0
30.0,0.0,4320.000000000002,4318.97435897436,4257.435897435899,4277.94871794872,4185.641025641027,4192.307692307694,4148.71794871795,4213.333333333335,4214.871794871797,4186.666666666668,4220.000000000002,4290.769230769232,4312.8205128205145,4337.94871794872,0.0,2048.0,2058.0,0.0,0.0,4.0,4.0,4.0,4.0,0.0,4.0,4.0,4.0,4.0,3.0,4.0,4.0,4.0,4.0,4.0,4.0
31.0,0.0,4344.102564102565,4334.3589743589755,4266.666666666668,4283.589743589745,4186.153846153848,4192.8205128205145,4146.666666666668,4204.102564102565,4211.282051282053,4184.615384615386,4214.871794871797,4296.923076923078,4324.102564102565,4363.076923076925,0.0,2049.0,2058.0,0.0,0.0,4.0,4.0,4.0,4.0,0.0,4.0,4.0,4.0,4.0,3.0,4.0,4.0,4.0,4.0,4.0,4.0
32.0,0.0,4356.410256410258,4355.384615384617,4281.538461538463,4289.743589743592,4185.641025641027,4189.23076923077,4158.46153846154,4198.46153846154,4208.20512820513,4184.615384615386,4214.3589743589755,4301.0256410256425,4328.71794871795,4374.871794871797,0.0,2049.0,2059.0,0.0,0.0,4.0,4.0,4.0,4.0,0.0,4.0,4.0,4.0,4.0,3.0,4.0,4.0,4.0,4.0,4.0,4.0
33.0,0.0,4366.153846153848,4378.46153846154,4292.307692307694,4295.897435897437,4182.051282051283,4185.641025641027,4203.589743589745,4203.589743589745,4211.794871794873,4187.179487179489,4221.0256410256425,4308.71794871795,4335.897435897437,4383.076923076925,0.0,2049.0,2059.0,0.0,0.0,4.0,4.0,4.0,4.0,0.0,4.0,4.0,4.0,4.0,3.0,4.0,4.0,4.0,4.0,4.0,4.0
34.0,0.0,4354.3589743589755,4349.743589743592,4278.97435897436,4292.8205128205145,4183.076923076925,4186.153846153848,4214.871794871797,4201.538461538463,4208.71794871795,4184.102564102565,4216.410256410258,4302.051282051283,4331.282051282053,4369.23076923077,0.0,2049.0,2059.0,0.0,0.0,4.0,4.0,4.0,4.0,0.0,4.0,4.0,4.0,4.0,3.0,4.0,4.0,4.0,4.0,4.0,4.0
35.0,0.0,4325.641025641027,4306.666666666668,4258.46153846154,4275.897435897437,4184.615384615386,4187.692307692309,4172.8205128205145,4186.666666666668,4200.000000000002,4181.0256410256425,4203.076923076925,4281.538461538463,4312.307692307694,4339.487179487181,0.0,2048.0,2059.0,0.0,0.0,4.0,4.0,4.0,4.0,0.0,4.0,4.0,4.0,4.0,3.0,4.0,4.0,4.0,4.0,4.0,4.0
36.0,0.0,4309.743589743592,4318.46153846154,4245.128205128207,4254.3589743589755,4183.589743589745,4185.128205128207,4166.666666666668,4180.000000000002,4194.871794871797,4183.589743589745,4196.410256410258,4265.128205128207,4290.769230769232,4315.384615384617,0.0,2045.0,2054.0,0.0,0.0,4.0,4.0,4.0,4.0,0.0,4.0,4.0,4.0,4.0,3.0,4.0,4.0,4.0,4.0,4.0,4.0
37.0,0.0,4297.435897435899,4329.23076923077,4235.384615384617,4243.589743589745,4187.179487179489,4178.97435897436,4176.410256410258,4182.051282051283,4193.333333333335,4179.487179487181,4192.8205128205145,4257.94871794872,4279.487179487181,4295.897435897437,0.0,2045.0,2050.0,0.0,0.0,4.0,4.0,4.0,4.0,0.0,4.0,4.0,4.0,4.0,3.0,4.0,4.0,4.0,4.0,4.0,4.0
38.0,0.0,4268.20512820513,4277.435897435899,4227.179487179489,4236.410256410258,4187.692307692309,4177.435897435899,4137.435897435899,4183.076923076925,4186.666666666668,4174.3589743589755,4186.666666666668,4248.20512820513,4267.692307692309,4273.846153846155,0.0,2044.0,2044.0,0.0,0.0,4.0,4.0,4.0,4.0,0.0,4.0,4.0,4.0,4.0,3.0,4.0,4.0,4.0,4.0,4.0,4.0
39.0,0.0,4244.102564102565,4238.97435897436,4214.3589743589755,4222.564102564104,4184.615384615386,4181.0256410256425,4147.179487179489,4184.102564102565,4184.615384615386,4178.97435897436,4184.615384615386,4235.897435897437,4250.769230769232,4250.256410256412,0.0,2044.0,2042.0,0.0,0.0,4.0,4.0,4.0,4.0,0.0,4.0,4.0,4.0,4.0,3.0,4.0,4.0,4.0,4.0,4.0,4.0
40.0,0.0,4235.384615384617,4242.564102564104,4199.487179487181,4211.794871794873,4182.564102564104,4181.538461538463,4215.897435897437,4186.666666666668,4191.794871794873,4183.589743589745,4188.71794871795,4229.23076923077,4239.487179487181,4229.743589743592,0.0,2042.0,2037.0,0.0,0.0,4.0,4.0,4.0,4.0,0.0,4.0,4.0,4.0,4.0,3.0,4.0,4.0,4.0,4.0,4.0,4.0
41.0,0.0,4218.97435897436,4222.564102564104,4191.794871794873,4208.20512820513,4182.051282051283,4178.97435897436,4174.871794871797,4191.794871794873,4194.3589743589755,4181.0256410256425,4189.743589743592,4223.076923076925,4230.256410256412,4211.282051282053,0.0,2042.0,2036.0,0.0,0.0,4.0,4.0,4.0,4.0,0.0,4.0,4.0,4.0,4.0,3.0,4.0,4.0,4.0,4.0,4.0,4.0
42.0,0.0,4200.512820512822,4193.846153846155,4192.307692307694,4202.051282051283,4184.615384615386,4181.538461538463,4114.3589743589755,4197.94871794872,4191.282051282053,4180.000000000002,4185.128205128207,4213.846153846155,4219.487179487181,4198.97435897436,0.0,2040.0,2032.0,0.0,0.0,4.0,4.0,4.0,4.0,0.0,4.0,4.0,4.0,4.0,3.0,4.0,4.0,4.0,4.0,4.0,4.0
43.0,0.0,4192.8205128205145,4194.871794871797,4187.692307692309,4195.384615384617,4183.589743589745,4182.564102564104,4190.256410256412,4194.871794871797,4188.71794871795,4182.564102564104,4183.589743589745,4207.179487179489,4211.282051282053,4187.179487179489,0.0,2040.0,2030.0,0.0,0.0,4.0,4.0,4.0,4.0,0.0,4.0,4.0,4.0,4.0,3.0,4.0,4.0,4.0,4.0,4.0,4.0
44.0,0.0,4184.615384615386,4194.3589743589755,4177.435897435899,4187.692307692309,4183.076923076925,4179.487179487181,4231.794871794873,4187.179487179489,4189.23076923077,4176.923076923078,4182.564102564104,4202.051282051283,4200.000000000002,4169.743589743592,0.0,2040.0,2028.0,0.0,0.0,4.0,4.0,4.0,4.0,0.0,4.0,4.0,4.0,4.0,3.0,4.0,4.0,4.0,4.0,4.0,4.0
45.0,0.0,4167.179487179489,4175.384615384617,4171.794871794873,4177.435897435899,4186.153846153848,4180.000000000002,4156.410256410258,4180.512820512822,4184.102564102565,4169.743589743592,4173.846153846155,4192.307692307694,4181.538461538463,4154.3589743589755,0.0,2039.0,2026.0,0.0,0.0,4.0,4.0,4.0,4.0,0.0,4.0,4.0,4.0,4.0,3.0,4.0,4.0,4.0,4.0,4.0,4.0
46.0,0.0,4153.846153846155,4163.076923076925,4165.641025641027,4170.256410256412,4185.128205128207,4177.94871794872,4119.487179487181,4170.256410256412,4173.333333333335,4168.20512820513,4163.589743589745,4180.000000000002,4166.666666666668,4142.564102564104,0.0,2040.0,2025.0,0.0,0.0,4.0,4.0,4.0,4.0,0.0,4.0,4.0,4.0,4.0,3.0,4.0,4.0,4.0,4.0,4.0,4.0
47.0,0.0,4152.8205128205145,4160.000000000002,4162.051282051283,4167.692307692309,4182.564102564104,4176.410256410258,4133.846153846155,4170.769230769232,4174.3589743589755,4169.23076923077,4165.641025641027,4176.410256410258,4166.153846153848,4136.923076923078,0.0,2038.0,2027.0,0.0,0.0,4.0,4.0,4.0,4.0,0.0,4.0,4.0,4.0,4.0,3.0,4.0,4.0,4.0,4.0,4.0,4.0
48.0,0.0,4155.384615384617,4159.487179487181,4168.20512820513,4173.333333333335,4184.102564102565,4178.97435897436,4162.051282051283,4184.615384615386,4184.615384615386,4173.333333333335,4177.94871794872,4182.051282051283,4172.8205128205145,4142.051282051283,0.0,2038.0,2028.0,0.0,0.0,4.0,4.0,4.0,4.0,0.0,4.0,4.0,4.0,4.0,3.0,4.0,4.0,4.0,4.0,4.0,4.0
49.0,0.0,4155.384615384617,4154.871794871797,4171.794871794873,4176.410256410258,4185.641025641027,4178.46153846154,4185.128205128207,4187.692307692309,4186.666666666668,4176.410256410258,4181.538461538463,4185.128205128207,4172.307692307694,4145.128205128207,0.0,2039.0,2030.0,0.0,0.0,4.0,4.0,4.0,4.0,0.0,4.0,4.0,4.0,4.0,3.0,4.0,4.0,4.0,4.0,4.0,4.0
50.0,0.0,4153.333333333335,4145.641025641027,4168.20512820513,4169.743589743592,4185.641025641027,4176.923076923078,4142.051282051283,4181.538461538463,4183.589743589745,4174.871794871797,4177.435897435899,4185.641025641027,4166.153846153848,4141.538461538463,0.0,2039.0,2032.0,0.0,0.0,4.0,4.0,4.0,4.0,0.0,4.0,4.0,4.0,4.0,3.0,4.0,4.0,4.0,4.0,4.0,4.0
51.0,0.0,4146.153846153848,4143.076923076925,4166.153846153848,4163.589743589745,4183.589743589745,4176.410256410258,4117.435897435899,4181.0256410256425,4184.615384615386,4171.794871794873,4176.923076923078,4186.153846153848,4167.692307692309,4139.487179487181,0.0,2040.0,2037.0,0.0,0.0,4.0,4.0,4.0,4.0,0.0,4.0,4.0,4.0,4.0,3.0,4.0,4.0,4.0,4.0,4.0,4.0
52.0,0.0,4140.000000000002,4146.153846153848,4164.102564102565,4162.564102564104,4183.076923076925,4175.384615384617,4190.769230769232,4183.589743589745,4181.538461538463,4172.307692307694,4172.8205128205145,4182.564102564104,4167.692307692309,4140.512820512822,0.0,2041.0,2038.0,0.0,0.0,4.0,4.0,4.0,4.0,0.0,4.0,4.0,4.0,4.0,3.0,4.0,4.0,4.0,4.0,4.0,4.0
53.0,0.0,4149.743589743592,4150.256410256412,4165.128205128207,4165.128205128207,4184.102564102565,4175.897435897437,4198.97435897436,4185.128205128207,4176.923076923078,4172.307692307694,4168.71794871795,4183.076923076925,4163.589743589745,4148.20512820513,0.0,2040.0,2041.0,0.0,0.0,4.0,4.0,4.0,4.0,0.0,4.0,4.0,4.0,4.0,3.0,4.0,4.0,4.0,4.0,4.0,4.0
54.0,0.0,4165.641025641027,4163.589743589745,4170.769230769232,4171.794871794873,4183.076923076925,4175.897435897437,4119.487179487181,4186.153846153848,4179.487179487181,4171.282051282053,4174.3589743589755,4191.282051282053,4177.94871794872,4165.128205128207,0.0,2040.0,2043.0,0.0,0.0,4.0,4.0,4.0,4.0,0.0,4.0,4.0,4.0,4.0,3.0,4.0,4.0,4.0,4.0,4.0,4.0
55.0,0.0,4188.71794871795,4194.871794871797,4184.102564102565,4190.769230769232,4183.076923076925,4175.897435897437,4128.71794871795,4185.641025641027,4182.051282051283,4173.846153846155,4186.153846153848,4208.20512820513,4217.94871794872,4198.46153846154,0.0,2041.0,2044.0,0.0,0.0,4.0,4.0,4.0,4.0,0.0,4.0,4.0,4.0,4.0,3.0,4.0,4.0,4.0,4.0,4.0,4.0
56.0,0.0,4239.487179487181,4238.46153846154,4213.333333333335,4219.487179487181,4184.102564102565,4181.0256410256425,4177.435897435899,4187.179487179489,4188.71794871795,4181.0256410256425,4201.0256410256425,4240.512820512822,4266.153846153848,4255.897435897437,0.0,2042.0,2048.0,0.0,0.0,4.0,4.0,4.0,4.0,0.0,4.0,4.0,4.0,4.0,3.0,4.0,4.0,4.0,4.0,4.0,4.0
57.0,0.0,4298.97435897436,4286.153846153848,4248.20512820513,4243.076923076925,4185.641025641027,4187.179487179489,4160.512820512822,4188.71794871795,4196.923076923078,4186.666666666668,4215.897435897437,4273.333333333335,4298.46153846154,4317.94871794872,0.0,2044.0,2050.0,0.0,0.0,4.0,4.0,4.0,4.0,0.0,4.0,4.0,4.0,4.0,3.0,4.0,4.0,4.0,4.0,4.0,4.0
58.0,0.0,4338.97435897436,4336.410256410258,4267.692307692309,4261.538461538463,4184.102564102565,4189.743589743592,4135.384615384617,4186.666666666668,4198.46153846154,4185.128205128207,4219.487179487181,4290.769230769232,4318.46153846154,4359.487179487181,0.0,2045.0,2055.0,0.0,0.0,4.0,4.0,4.0,4.0,0.0,4.0,4.0,4.0,4.0,3.0,4.0,4.0,4.0,4.0,4.0,4.0
59.0,0.0,4353.846153846155,4367.692307692309,4269.23076923077,4273.333333333335,4183.589743589745,4194.871794871797,4126.666666666668,4186.153846153848,4196.923076923078,4183.589743589745,4217.435897435899,4296.923076923078,4331.794871794873,4376.923076923078,0.0,2044.0,2058.0,0.0,0.0,4.0,4.0,4.0,4.0,0.0,4.0,4.0,4.0,4.0,3.0,4.0,4.0,4.0,4.0,4.0,4.0
60.0,0.0,4353.333333333335,4363.589743589745,4267.692307692309,4270.256410256412,4184.615384615386,4195.897435897437,4097.435897435899,4186.153846153848,4192.307692307694,4185.128205128207,4213.333333333335,4290.769230769232,4323.589743589745,4374.871794871797,0.0,2046.0,2060.0,0.0,0.0,4.0,4.0,4.0,4.0,0.0,4.0,4.0,4.0,4.0,3.0,4.0,4.0,4.0,4.0,4.0,4.0
61.0,0.0,4353.333333333335,4355.897435897437,4270.769230769232,4265.641025641027,4183.589743589745,4186.666666666668,4064.102564102566,4182.564102564104,4184.615384615386,4182.564102564104,4205.128205128207,4291.794871794873,4308.20512820513,4371.794871794873,0.0,2047.0,2060.0,0.0,0.0,4.0,4.0,4.0,4.0,0.0,4.0,4.0,4.0,4.0,3.0,4.0,4.0,4.0,4.0,4.0,4.0
62.0,0.0,4358.97435897436,4365.641025641027,4276.410256410258,4275.384615384617,4185.641025641027,4185.641025641027,4067.692307692309,4183.589743589745,4185.128205128207,4182.051282051283,4208.20512820513,4305.641025641027,4312.307692307694,4379.487179487181,0.0,2047.0,2060.0,0.0,0.0,4.0,4.0,4.0,4.0,0.0,4.0,4.0,4.0,4.0,3.0,4.0,4.0,4.0,4.0,4.0,4.0
63.0,0.0,4357.94871794872,4367.692307692309,4280.000000000002,4285.128205128207,4187.692307692309,4193.333333333335,4087.1794871794887,4192.8205128205145,4192.8205128205145,4184.615384615386,4220.000000000002,4308.20512820513,4313.333333333335,4378.97435897436,0.0,2048.0,2060.0,0.0,0.0,4.0,4.0,4.0,4.0,0.0,4.0,4.0,4.0,4.0,3.0,4.0,4.0,4.0,4.0,4.0,4.0
64.0,0.0,4342.564102564104,4350.769230769232,4274.871794871797,4281.0256410256425,4184.615384615386,4200.000000000002,4091.2820512820526,4200.512820512822,4194.3589743589755,4183.589743589745,4214.3589743589755,4296.923076923078,4288.20512820513,4357.94871794872,809.0,2047.0,2058.0,0.0,0.0,4.0,4.0,4.0,4.0,0.0,4.0,4.0,4.0,4.0,3.0,4.0,4.0,4.0,4.0,4.0,4.0
65.0,0.0,4325.641025641027,4327.179487179489,4266.666666666668,4268.71794871795,4185.128205128207,4201.0256410256425,4084.615384615386,4200.512820512822,4190.256410256412,4183.076923076925,4206.153846153848,4289.23076923077,4262.564102564104,4335.384615384617,845.0,2048.0,2059.0,0.0,0.0,4.0,4.0,4.0,4.0,0.0,4.0,4.0,4.0,4.0,3.0,4.0,4.0,4.0,4.0,4.0,4.0
66.0,0.0,4302.564102564104,4301.538461538463,4254.871794871797,4254.3589743589755,4186.153846153848,4198.97435897436,4088.2051282051298,4196.923076923078,4184.615384615386,4184.102564102565,4202.051282051283,4274.871794871797,4245.641025641027,4313.846153846155,836.0,2047.0,2059.0,0.0,0.0,4.0,4.0,4.0,4.0,0.0,4.0,4.0,4.0,4.0,3.0,4.0,4.0,4.0,4.0,4.0,4.0
67.0,0.0,4270.769230769232,4268.71794871795,4233.333333333335,4234.3589743589755,4186.666666666668,4196.410256410258,4124.102564102565,4188.71794871795,4172.8205128205145,4175.897435897437,4187.179487179489,4250.256410256412,4222.564102564104,4282.564102564104,836.0,2048.0,2057.0,0.0,0.0,4.0,4.0,4.0,4.0,0.0,4.0,4.0,4.0,4.0,3.0,4.0,4.0,4.0,4.0,4.0,4.0
68.0,0.0,4245.128205128207,4233.333333333335,4216.410256410258,4220.000000000002,4187.179487179489,4194.871794871797,4206.666666666668,4181.0256410256425,4167.179487179489,4168.20512820513,4174.871794871797,4234.3589743589755,4203.076923076925,4255.384615384617,0.0,2048.0,2057.0,0.0,0.0,4.0,4.0,4.0,4.0,0.0,4.0,4.0,4.0,4.0,3.0,4.0,4.0,4.0,4.0,4.0,4.0
69.0,0.0,4233.846153846155,4210.769230769232,4215.897435897437,4222.051282051283,4186.666666666668,4197.435897435899,4254.3589743589755,4188.71794871795,4172.8205128205145,4172.8205128205145,4179.487179487181,4232.8205128205145,4195.897435897437,4242.051282051283,640.0,2047.0,2053.0,0.0,0.0,4.0,4.0,4.0,4.0,0.0,4.0,4.0,4.0,4.0,3.0,4.0,4.0,4.0,4.0,4.0,4.0
70.0,0.0,4226.666666666668,4202.564102564104,4218.46153846154,4221.538461538463,4187.179487179489,4202.051282051283,4178.46153846154,4198.46153846154,4178.46153846154,4177.435897435899,4190.256410256412,4234.3589743589755,4190.769230769232,4235.384615384617,790.0,2046.0,2052.0,0.0,0.0,4.0,4.0,4.0,4.0,0.0,4.0,4.0,4.0,4.0,3.0,4.0,4.0,4.0,4.0,4.0,4.0
71.0,0.0,4209.743589743592,4187.692307692309,4206.153846153848,4205.641025641027,4187.179487179489,4201.0256410256425,4083.589743589745,4191.282051282053,4173.333333333335,4172.307692307694,4185.128205128207,4225.128205128207,4175.384615384617,4217.94871794872,860.0,2046.0,2052.0,0.0,0.0,4.0,4.0,4.0,4.0,0.0,4.0,4.0,4.0,4.0,3.0,4.0,4.0,4.0,4.0,4.0,4.0
72.0,0.0,4187.179487179489,4165.641025641027,4187.692307692309,4191.282051282053,4186.666666666668,4193.846153846155,4098.97435897436,4182.564102564104,4168.20512820513,4169.23076923077,4169.23076923077,4209.23076923077,4157.94871794872,4192.307692307694,770.0,2046.0,2051.0,0.0,0.0,4.0,4.0,4.0,4.0,0.0,4.0,4.0,4.0,4.0,3.0,4.0,4.0,4.0,4.0,4.0,4.0
73.0,0.0,4175.384615384617,4156.410256410258,4184.615384615386,4191.282051282053,4186.666666666668,4193.333333333335,4132.307692307694,4184.615384615386,4169.743589743592,4171.794871794873,4168.20512820513,4204.615384615386,4154.3589743589755,4178.46153846154,245.0,2046.0,2051.0,0.0,0.0,4.0,4.0,4.0,4.0,0.0,4.0,4.0,4.0,4.0,3.0,4.0,4.0,4.0,4.0,4.0,4.0
74.0,0.0,4170.256410256412,4151.282051282053,4184.102564102565,4192.307692307694,4186.666666666668,4195.897435897437,4074.358974358976,4186.153846153848,4168.20512820513,4171.794871794873,4176.410256410258,4202.051282051283,4152.8205128205145,4172.8205128205145,861.0,2046.0,2050.0,0.0,0.0,4.0,4.0,4.0,4.0,0.0,4.0,4.0,4.0,4.0,3.0,4.0,4.0,4.0,4.0,4.0,4.0
75.0,0.0,4158.97435897436,4136.923076923078,4173.333333333335,4184.102564102565,4185.128205128207,4191.282051282053,4046.6666666666683,4184.102564102565,4166.153846153848,4170.769230769232,4174.871794871797,4190.769230769232,4142.564102564104,4160.000000000002,820.0,2045.0,2047.0,0.0,0.0,4.0,4.0,4.0,4.0,0.0,4.0,4.0,4.0,4.0,3.0,4.0,4.0,4.0,4.0,4.0,4.0
76.0,0.0,4143.589743589745,4122.564102564104,4166.153846153848,4172.307692307694,4184.102564102565,4183.589743589745,4112.307692307694,4180.512820512822,4167.179487179489,4171.282051282053,4169.23076923077,4183.076923076925,4136.410256410258,4148.71794871795,842.0,2044.0,2048.0,0.0,0.0,4.0,4.0,4.0,4.0,0.0,4.0,4.0,4.0,4.0,3.0,4.0,4.0,4.0,4.0,4.0,4.0
77.0,0.0,4132.8205128205145,4120.512820512822,4160.512820512822,4167.179487179489,4185.641025641027,4185.128205128207,4115.384615384617,4175.384615384617,4164.102564102565,4171.282051282053,4166.153846153848,4179.487179487181,4136.923076923078,4145.128205128207,847.0,2044.0,2048.0,0.0,0.0,4.0,4.0,4.0,4.0,0.0,4.0,4.0,4.0,4.0,3.0,4.0,4.0,4.0,4.0,4.0,4.0
78.0,0.0,4131.794871794873,4121.538461538463,4151.794871794873,4168.71794871795,4187.179487179489,4189.743589743592,4048.71794871795,4170.256410256412,4156.923076923078,4169.23076923077,4159.487179487181,4174.871794871797,4132.307692307694,4141.0256410256425,861.0,2043.0,2050.0,0.0,0.0,4.0,4.0,4.0,4.0,0.0,4.0,4.0,4.0,4.0,3.0,4.0,4.0,4.0,4.0,4.0,4.0
79.0,0.0,4126.153846153848,4112.307692307694,4145.641025641027,4163.589743589745,4184.102564102565,4184.615384615386,4061.0256410256425,4162.564102564104,4151.794871794873,4166.666666666668,4152.8205128205145,4169.743589743592,4118.46153846154,4129.23076923077,820.0,2043.0,2047.0,0.0,0.0,4.0,4.0,4.0,4.0,0.0,4.0,4.0,4.0,4.0,3.0,4.0,4.0,4.0,4.0,4.0,4.0
80.0,0.0,4110.769230769232,4099.487179487181,4139.487179487181,4153.333333333335,4182.564102564104,4181.0256410256425,4126.153846153848,4160.000000000002,4148.20512820513,4166.666666666668,4149.23076923077,4161.538461538463,4106.153846153848,4114.3589743589755,842.0,2043.0,2045.0,0.0,0.0,4.0,4.0,4.0,4.0,0.0,4.0,4.0,4.0,4.0,3.0,4.0,4.0,4.0,4.0,4.0,4.0
81.0,0.0,4110.256410256412,4094.8717948717963,4139.487179487181,4150.256410256412,4184.102564102565,4184.615384615386,4157.435897435899,4174.3589743589755,4152.8205128205145,4167.692307692309,4151.282051282053,4160.000000000002,4102.051282051283,4111.794871794873,847.0,2043.0,2043.0,0.0,0.0,4.0,4.0,4.0,4.0,0.0,4.0,4.0,4.0,4.0,3.0,4.0,4.0,4.0,4.0,4.0,4.0
82.0,0.0,4121.0256410256425,4100.512820512822,4151.794871794873,4160.512820512822,4186.153846153848,4185.641025641027,4177.94871794872,4189.23076923077,4165.128205128207,4167.692307692309,4163.589743589745,4170.769230769232,4113.846153846155,4118.97435897436,861.0,2043.0,2039.0,0.0,0.0,4.0,4.0,4.0,4.0,0.0,4.0,4.0,4.0,4.0,3.0,4.0,4.0,4.0,4.0,4.0,4.0
83.0,0.0,4129.23076923077,4116.923076923078,4164.615384615386,4172.8205128205145,4187.692307692309,4189.23076923077,4155.897435897437,4190.256410256412,4173.333333333335,4169.743589743592,4175.384615384617,4186.153846153848,4129.743589743592,4129.743589743592,820.0,2041.0,2037.0,0.0,0.0,4.0,4.0,4.0,4.0,0.0,4.0,4.0,4.0,4.0,3.0,4.0,4.0,4.0,4.0,4.0,4.0
84.0,0.0,4128.20512820513,4123.076923076925,4162.564102564104,4172.307692307694,4183.589743589745,4192.307692307694,4090.7692307692323,4184.102564102565,4169.743589743592,4169.743589743592,4173.333333333335,4186.153846153848,4130.256410256412,4133.846153846155,842.0,2041.0,2035.0,0.0,0.0,4.0,4.0,4.0,4.0,0.0,4.0,4.0,4.0,4.0,3.0,4.0,4.0,4.0,4.0,4.0,4.0
85.0,0.0,4124.102564102565,4109.743589743592,4157.435897435899,4168.20512820513,4182.051282051283,4187.179487179489,4108.20512820513,4178.46153846154,4164.102564102565,4168.20512820513,4165.641025641027,4175.384615384617,4121.0256410256425,4128.20512820513,847.0,2042.0,2035.0,0.0,0.0,4.0,4.0,4.0,4.0,0.0,4.0,4.0,4.0,4.0,3.0,4.0,4.0,4.0,4.0,4.0,4.0
86.0,0.0,4130.256410256412,4111.794871794873,4165.128205128207,4171.282051282053,4184.615384615386,4182.564102564104,4191.282051282053,4182.564102564104,4169.23076923077,4170.769230769232,4169.23076923077,4176.923076923078,4124.615384615386,4130.256410256412,861.0,2041.0,2034.0,0.0,0.0,4.0,4.0,4.0,4.0,0.0,4.0,4.0,4.0,4.0,3.0,4.0,4.0,4.0,4.0,4.0,4.0
87.0,0.0,4135.897435897437,4123.076923076925,4174.871794871797,4171.282051282053,4183.076923076925,4186.153846153848,4192.307692307694,4192.8205128205145,4177.94871794872,4171.794871794873,4175.384615384617,4186.153846153848,4131.794871794873,4136.410256410258,820.0,2042.0,2032.0,0.0,0.0,4.0,4.0,4.0,4.0,0.0,4.0,4.0,4.0,4.0,3.0,4.0,4.0,4.0,4.0,4.0,4.0
88.0,0.0,4133.333333333335,4115.384615384617,4177.94871794872,4168.71794871795,4183.589743589745,4188.20512820513,4129.23076923077,4191.282051282053,4175.897435897437,4170.256410256412,4173.846153846155,4187.692307692309,4128.20512820513,4135.384615384617,842.0,2041.0,2031.0,0.0,0.0,4.0,4.0,4.0,4.0,0.0,4.0,4.0,4.0,4.0,3.0,4.0,4.0,4.0,4.0,4.0,4.0
89.0,0.0,4131.794871794873,4108.20512820513,4175.897435897437,4170.256410256412,4185.641025641027,4184.102564102565,4115.897435897437,4184.615384615386,4170.256410256412,4170.769230769232,4171.282051282053,4184.615384615386,4123.589743589745,4131.794871794873,847.0,2040.0,2030.0,0.0,0.0,4.0,4.0,4.0,4.0,0.0,4.0,4.0,4.0,4.0,3.0,4.0,4.0,4.0,4.0,4.0,4.0
90.0,0.0,4136.923076923078,4119.487179487181,4173.333333333335,4172.8205128205145,4186.666666666668,4184.102564102565,4147.179487179489,4185.128205128207,4170.769230769232,4170.769230769232,4171.282051282053,4184.615384615386,4126.666666666668,4134.871794871797,861.0,2040.0,2029.0,0.0,0.0,4.0,4.0,4.0,4.0,0.0,4.0,4.0,4.0,4.0,3.0,4.0,4.0,4.0,4.0,4.0,4.0
91.0,0.0,4142.051282051283,4122.564102564104,4176.410256410258,4174.3589743589755,4186.666666666668,4185.128205128207,4161.0256410256425,4184.102564102565,4171.282051282053,4168.71794871795,4170.256410256412,4188.71794871795,4129.743589743592,4140.512820512822,820.0,2040.0,2030.0,0.0,0.0,4.0,4.0,4.0,4.0,0.0,4.0,4.0,4.0,4.0,3.0,4.0,4.0,4.0,4.0,4.0,4.0
92.0,0.0,4144.102564102565,4120.512820512822,4180.000000000002,4178.46153846154,4184.615384615386,4183.589743589745,4138.46153846154,4190.256410256412,4173.333333333335,4169.743589743592,4176.410256410258,4195.897435897437,4135.384615384617,4144.102564102565,842.0,2040.0,2031.0,0.0,0.0,4.0,4.0,4.0,4.0,0.0,4.0,4.0,4.0,4.0,3.0,4.0,4.0,4.0,4.0,4.0,4.0
93.0,0.0,4147.179487179489,4128.20512820513,4175.897435897437,4182.051282051283,4184.615384615386,4185.641025641027,4123.589743589745,4204.102564102565,4176.923076923078,4172.307692307694,4183.589743589745,4196.923076923078,4143.589743589745,4144.615384615386,847.0,2039.0,2032.0,0.0,0.0,4.0,4.0,4.0,4.0,0.0,4.0,4.0,4.0,4.0,3.0,4.0,4.0,4.0,4.0,4.0,4.0
94.0,0.0,4140.512820512822,4122.051282051283,4164.102564102565,4170.769230769232,4185.641025641027,4183.589743589745,4132.8205128205145,4196.923076923078,4172.307692307694,4170.256410256412,4173.846153846155,4182.564102564104,4134.871794871797,4136.410256410258,861.0,2041.0,2031.0,0.0,0.0,4.0,4.0,4.0,4.0,0.0,4.0,4.0,4.0,4.0,3.0,4.0,4.0,4.0,4.0,4.0,4.0
95.0,0.0,4127.179487179489,4105.641025641027,4158.97435897436,4155.897435897437,4188.71794871795,4173.846153846155,4142.564102564104,4184.615384615386,4166.666666666668,4167.692307692309,4164.102564102565,4172.307692307694,4122.564102564104,4125.641025641027,820.0,2038.0,2032.0,0.0,0.0,4.0,4.0,4.0,4.0,0.0,4.0,4.0,4.0,4.0,3.0,4.0,4.0,4.0,4.0,4.0,4.0
96.0,0.0,4124.102564102565,4108.20512820513,4160.000000000002,4160.512820512822,4187.179487179489,4175.384615384617,4183.076923076925,4195.384615384617,4171.282051282053,4170.769230769232,4171.794871794873,4174.871794871797,4131.282051282053,4127.692307692309,842.0,2039.0,2033.0,0.0,0.0,4.0,4.0,4.0,4.0,0.0,4.0,4.0,4.0,4.0,3.0,4.0,4.0,4.0,4.0,4.0,4.0
97.0,0.0,4127.179487179489,4116.410256410258,4149.23076923077,4169.743589743592,4181.538461538463,4182.051282051283,4261.538461538463,4203.076923076925,4172.8205128205145,4173.846153846155,4176.410256410258,4175.384615384617,4140.000000000002,4129.743589743592,847.0,2039.0,2037.0,0.0,0.0,4.0,4.0,4.0,4.0,0.0,4.0,4.0,4.0,4.0,3.0,4.0,4.0,4.0,4.0,4.0,4.0
98.0,0.0,4121.0256410256425,4110.769230769232,4136.923076923078,4161.0256410256425,4182.564102564104,4175.897435897437,4275.897435897437,4189.23076923077,4168.71794871795,4171.282051282053,4170.256410256412,4169.743589743592,4125.641025641027,4121.0256410256425,861.0,2039.0,2042.0,0.0,0.0,4.0,4.0,4.0,4.0,0.0,4.0,4.0,4.0,4.0,3.0,4.0,4.0,4.0,4.0,4.0,4.0
99.0,0.0,4114.3589743589755,4104.615384615386,4141.0256410256425,4153.333333333335,4184.102564102565,4170.256410256412,4213.333333333335,4179.487179487181,4168.20512820513,4168.71794871795,4167.179487179489,4168.20512820513,4120.512820512822,4115.897435897437,820.0,2039.0,2044.0,0.0,0.0,4.0,4.0,4.0,4.0,0.0,4.0,4.0,4.0,4.0,3.0,4.0,4.0,4.0,4.0,4.0,4.0
100.0,0.0,4117.435897435899,4106.666666666668,4153.333333333335,4156.923076923078,4183.589743589745,4171.794871794873,4214.871794871797,4182.564102564104,4166.666666666668,4169.743589743592,4169.23076923077,4171.282051282053,4132.307692307694,4120.512820512822,842.0,2040.0,2046.0,0.0,0.0,4.0,4.0,4.0,4.0,0.0,4.0,4.0,4.0,4.0,3.0,4.0,4.0,4.0,4.0,4.0,4.0
101.0,0.0,4122.051282051283,4108.20512820513,4160.512820512822,4158.97435897436,4184.102564102565,4170.769230769232,4273.333333333335,4181.538461538463,4163.589743589745,4169.23076923077,4167.692307692309,4171.794871794873,4131.282051282053,4124.615384615386,847.0,2043.0,2050.0,0.0,0.0,4.0,4.0,4.0,4.0,0.0,4.0,4.0,4.0,4.0,3.0,4.0,4.0,4.0,4.0,4.0,4.0
102.0,0.0,4126.666666666668,4109.743589743592,4161.538461538463,4162.051282051283,4184.102564102565,4167.692307692309,4252.307692307694,4183.076923076925,4163.589743589745,4168.71794871795,4165.641025641027,4173.333333333335,4127.179487179489,4126.666666666668,861.0,2043.0,2051.0,0.0,0.0,4.0,4.0,4.0,4.0,0.0,4.0,4.0,4.0,4.0,3.0,4.0,4.0,4.0,4.0,4.0,4.0
103.0,0.0,4131.794871794873,4112.307692307694,4164.102564102565,4168.71794871795,4185.128205128207,4171.282051282053,4193.846153846155,4191.794871794873,4168.71794871795,4169.743589743592,4168.71794871795,4179.487179487181,4137.94871794872,4130.769230769232,820.0,2045.0,2053.0,0.0,0.0,4.0,4.0,4.0,4.0,0.0,4.0,4.0,4.0,4.0,3.0,4.0,4.0,4.0,4.0,4.0,4.0
104.0,0.0,4133.846153846155,4108.20512820513,4166.153846153848,4170.256410256412,4181.538461538463,4176.410256410258,4208.20512820513,4193.333333333335,4172.8205128205145,4170.769230769232,4172.8205128205145,4180.000000000002,4141.538461538463,4127.692307692309,842.0,2047.0,2056.0,0.0,0.0,4.0,4.0,4.0,4.0,0.0,4.0,4.0,4.0,4.0,3.0,4.0,4.0,4.0,4.0,4.0,4.0
105.0,0.0,4130.769230769232,4105.128205128207,4157.435897435899,4168.20512820513,4179.487179487181,4174.871794871797,4233.333333333335,4185.641025641027,4165.641025641027,4170.256410256412,4169.743589743592,4171.282051282053,4127.692307692309,4120.512820512822,847.0,2047.0,2057.0,0.0,0.0,4.0,4.0,4.0,4.0,0.0,4.0,4.0,4.0,4.0,3.0,4.0,4.0,4.0,4.0,4.0,4.0
106.0,0.0,4128.20512820513,4105.641025641027,4156.410256410258,4167.692307692309,4182.564102564104,4174.3589743589755,4175.384615384617,4182.564102564104,4158.46153846154,4168.71794871795,4165.641025641027,4170.256410256412,4123.076923076925,4121.538461538463,861.0,2048.0,2058.0,0.0,0.0,4.0,4.0,4.0,4.0,0.0,4.0,4.0,4.0,4.0,3.0,4.0,4.0,4.0,4.0,4.0,4.0
107.0,0.0,4132.8205128205145,4110.256410256412,4167.692307692309,4169.23076923077,4185.128205128207,4181.538461538463,4129.743589743592,4190.256410256412,4166.153846153848,4169.743589743592,4171.282051282053,4183.076923076925,4138.46153846154,4130.256410256412,820.0,2048.0,2058.0,0.0,0.0,4.0,4.0,4.0,4.0,0.0,4.0,4.0,4.0,4.0,3.0,4.0,4.0,4.0,4.0,4.0,4.0
108.0,0.0,4135.897435897437,4112.307692307694,4166.153846153848,4171.282051282053,4185.641025641027,4186.666666666668,4180.512820512822,4186.666666666668,4168.71794871795,4170.769230769232,4171.794871794873,4184.102564102565,4141.0256410256425,4132.307692307694,842.0,2050.0,2057.0,0.0,0.0,4.0,4.0,4.0,4.0,0.0,4.0,4.0,4.0,4.0,3.0,4.0,4.0,4.0,4.0,4.0,4.0
109.0,0.0,4130.256410256412,4103.076923076925,4152.307692307694,4169.23076923077,4181.0256410256425,4180.512820512822,4243.589743589745,4169.23076923077,4151.282051282053,4167.692307692309,4161.0256410256425,4168.71794871795,4126.666666666668,4124.102564102565,847.0,2051.0,2057.0,0.0,0.0,4.0,4.0,4.0,4.0,0.0,4.0,4.0,4.0,4.0,3.0,4.0,4.0,4.0,4.0,4.0,4.0
110.0,0.0,4128.71794871795,4096.923076923078,4152.8205128205145,4166.666666666668,4179.487179487181,4176.410256410258,4231.282051282053,4171.794871794873,4149.23076923077,4167.179487179489,4160.000000000002,4168.20512820513,4128.20512820513,4122.051282051283,861.0,2051.0,2056.0,0.0,0.0,4.0,4.0,4.0,4.0,0.0,4.0,4.0,4.0,4.0,3.0,4.0,4.0,4.0,4.0,4.0,4.0
111.0,0.0,4141.0256410256425,4106.666666666668,4169.23076923077,4173.333333333335,4183.076923076925,4183.589743589745,4198.97435897436,4194.871794871797,4170.256410256412,4172.307692307694,4175.897435897437,4185.641025641027,4147.179487179489,4137.435897435899,820.0,2053.0,2054.0,0.0,0.0,4.0,4.0,4.0,4.0,0.0,4.0,4.0,4.0,4.0,3.0,4.0,4.0,4.0,4.0,4.0,4.0
112.0,0.0,4147.179487179489,4109.23076923077,4170.769230769232,4175.897435897437,4180.512820512822,4181.538461538463,4218.97435897436,4198.97435897436,4174.871794871797,4173.846153846155,4182.051282051283,4189.743589743592,4154.3589743589755,4146.153846153848,842.0,2054.0,2053.0,0.0,0.0,4.0,4.0,4.0,4.0,0.0,4.0,4.0,4.0,4.0,3.0,4.0,4.0,4.0,4.0,4.0,4.0
113.0,0.0,4141.0256410256425,4100.512820512822,4161.538461538463,4170.769230769232,4181.0256410256425,4170.769230769232,4256.410256410258,4183.589743589745,4162.564102564104,4169.23076923077,4172.307692307694,4183.076923076925,4148.20512820513,4136.923076923078,847.0,2055.0,2053.0,0.0,0.0,4.0,4.0,4.0,4.0,0.0,4.0,4.0,4.0,4.0,3.0,4.0,4.0,4.0,4.0,4.0,4.0
114.0,0.0,4140.000000000002,4102.564102564104,4169.743589743592,4176.923076923078,4182.564102564104,4173.333333333335,4279.487179487181,4182.051282051283,4161.538461538463,4168.71794871795,4170.256410256412,4185.641025641027,4143.076923076925,4137.94871794872,861.0,2055.0,2052.0,0.0,0.0,4.0,4.0,4.0,4.0,0.0,4.0,4.0,4.0,4.0,3.0,4.0,4.0,4.0,4.0,4.0,4.0
115.0,0.0,4141.538461538463,4106.666666666668,4178.97435897436,4185.128205128207,4178.97435897436,4178.46153846154,4301.0256410256425,4183.076923076925,4163.076923076925,4170.256410256412,4171.794871794873,4186.666666666668,4139.487179487181,4145.641025641027,820.0,2055.0,2052.0,0.0,0.0,4.0,4.0,4.0,4.0,0.0,4.0,4.0,4.0,4.0,3.0,4.0,4.0,4.0,4.0,4.0,4.0
116.0,0.0,4140.512820512822,4102.564102564104,4172.8205128205145,4181.538461538463,4181.538461538463,4171.794871794873,4308.71794871795,4174.871794871797,4157.94871794872,4169.23076923077,4169.23076923077,4181.538461538463,4139.487179487181,4141.0256410256425,842.0,2055.0,2051.0,0.0,0.0,4.0,4.0,4.0,4.0,0.0,4.0,4.0,4.0,4.0,3.0,4.0,4.0,4.0,4.0,4.0,4.0
117.0,0.0,4149.23076923077,4109.743589743592,4173.846153846155,4187.179487179489,4185.128205128207,4168.20512820513,4292.307692307694,4180.000000000002,4163.076923076925,4169.743589743592,4175.384615384617,4188.71794871795,4148.20512820513,4145.641025641027,847.0,2052.0,2046.0,0.0,0.0,4.0,4.0,4.0,4.0,0.0,4.0,4.0,4.0,4.0,3.0,4.0,4.0,4.0,4.0,4.0,4.0
118.0,0.0,4169.23076923077,4125.641025641027,4181.0256410256425,4199.487179487181,4182.564102564104,4173.333333333335,4273.333333333335,4187.692307692309,4167.179487179489,4171.794871794873,4180.000000000002,4197.94871794872,4159.487179487181,4160.512820512822,861.0,2051.0,2044.0,0.0,0.0,4.0,4.0,4.0,4.0,0.0,4.0,4.0,4.0,4.0,3.0,4.0,4.0,4.0,4.0,4.0,4.0
119.0,0.0,4185.128205128207,4140.512820512822,4177.435897435899,4202.564102564104,4182.564102564104,4174.871794871797,4227.179487179489,4175.897435897437,4162.564102564104,4170.256410256412,4175.897435897437,4201.0256410256425,4171.282051282053,4175.384615384617,820.0,2050.0,2041.0,0.0,0.0,4.0,4.0,4.0,4.0,0.0,4.0,4.0,4.0,4.0,3.0,4.0,4.0,4.0,4.0,4.0,4.0
120.0,0.0,4201.538461538463,4164.615384615386,4177.94871794872,4208.71794871795,4183.076923076925,4174.3589743589755,4171.282051282053,4169.23076923077,4163.076923076925,4168.20512820513,4177.435897435899,4211.794871794873,4188.20512820513,4196.923076923078,842.0,2049.0,2038.0,0.0,0.0,4.0,4.0,4.0,4.0,0.0,4.0,4.0,4.0,4.0,3.0,4.0,4.0,4.0,4.0,4.0,4.0
121.0,0.0,4233.846153846155,4204.102564102565,4205.641025641027,4228.20512820513,4182.564102564104,4179.487179487181,4177.94871794872,4182.051282051283,4169.23076923077,4169.743589743592,4186.153846153848,4231.794871794873,4211.794871794873,4232.307692307694,847.0,2047.0,2034.0,0.0,0.0,4.0,4.0,4.0,4.0,0.0,4.0,4.0,4.0,4.0,3.0,4.0,4.0,4.0,4.0,4.0,4.0
122.0,0.0,4273.846153846155,4247.179487179489,4244.102564102565,4249.743589743592,4183.076923076925,4184.615384615386,4204.102564102565,4187.692307692309,4176.923076923078,4176.923076923078,4193.846153846155,4255.384615384617,4242.564102564104,4276.410256410258,861.0,2045.0,2029.0,0.0,0.0,4.0,4.0,4.0,4.0,0.0,4.0,4.0,4.0,4.0,3.0,4.0,4.0,4.0,4.0,4.0,4.0
123.0,0.0,4307.692307692309,4277.94871794872,4266.153846153848,4268.20512820513,4185.641025641027,4187.179487179489,4186.153846153848,4184.615384615386,4184.615384615386,4182.564102564104,4207.179487179489,4278.97435897436,4273.333333333335,4318.97435897436,820.0,2043.0,2026.0,0.0,0.0,4.0,4.0,4.0,4.0,0.0,4.0,4.0,4.0,4.0,3.0,4.0,4.0,4.0,4.0,4.0,4.0
124.0,0.0,4337.435897435899,4299.487179487181,4277.94871794872,4281.0256410256425,4181.0256410256425,4187.179487179489,4173.333333333335,4186.666666666668,4188.20512820513,4183.076923076925,4218.97435897436,4297.94871794872,4292.8205128205145,4352.307692307694,842.0,2042.0,2023.0,0.0,0.0,4.0,4.0,4.0,4.0,0.0,4.0,4.0,4.0,4.0,3.0,4.0,4.0,4.0,4.0,4.0,4.0
125.0,0.0,4352.307692307694,4311.282051282053,4290.769230769232,4286.153846153848,4177.94871794872,4184.615384615386,4197.94871794872,4187.179487179489,4188.71794871795,4182.051282051283,4217.435897435899,4306.666666666668,4297.435897435899,4366.153846153848,847.0,2040.0,2022.0,0.0,0.0,4.0,4.0,4.0,4.0,0.0,4.0,4.0,4.0,4.0,3.0,4.0,4.0,4.0,4.0,4.0,4.0
126.0,0.0,4355.897435897437,4311.282051282053,4300.000000000002,4294.871794871797,4183.589743589745,4185.641025641027,4197.94871794872,4185.641025641027,4195.897435897437,4183.076923076925,4216.410256410258,4307.179487179489,4298.97435897436,4370.256410256412,861.0,2038.0,2017.0,0.0,0.0,4.0,4.0,4.0,4.0,0.0,4.0,4.0,4.0,4.0,3.0,4.0,4.0,4.0,4.0,4.0,4.0
127.0,0.0,4351.282051282053,4296.410256410258,4295.897435897437,4300.512820512822,4180.512820512822,4186.153846153848,4165.641025641027,4187.692307692309,4198.97435897436,4187.692307692309,4219.487179487181,4304.102564102565,4297.94871794872,4366.153846153848,820.0,2038.0,2018.0,0.0,0.0,4.0,4.0,4.0,4.0,0.0,4.0,4.0,4.0,4.0,3.0,4.0,4.0,4.0,4.0,4.0,4.0
128.0,0.0,4331.282051282053,4276.923076923078,4281.538461538463,4285.641025641027,4178.46153846154,4186.153846153848,4155.897435897437,4186.666666666668,4190.769230769232,4183.076923076925,4214.871794871797,4295.897435897437,4280.512820512822,4347.179487179488,842.0,2036.0,2022.0,0.0,0.0,4.0,4.0,4.0,4.0,0.0,4.0,4.0,4.0,4.0,3.0,4.0,4.0,4.0,4.0,4.0,4.0
0.0,0.0,4312.307692307694,4274.871794871797,4276.410256410258,4270.256410256412,4185.641025641027,4188.20512820513,4156.923076923078,4184.102564102565,4186.666666666668,4173.333333333335,4207.692307692309,4287.692307692309,4257.435897435899,4323.589743589745,809.0,2037.0,2023.0,0.0,0.0,4.0,4.0,4.0,4.0,0.0,4.0,4.0,4.0,4.0,3.0,4.0,4.0,4.0,4.0,4.0,4.0
1.0,0.0,4292.8205128205145,4255.897435897437,4272.307692307694,4261.538461538463,4185.641025641027,4191.794871794873,4163.589743589745,4192.307692307694,4186.153846153848,4175.897435897437,4203.076923076925,4277.94871794872,4242.564102564104,4296.410256410258,845.0,2035.0,2025.0,0.0,0.0,4.0,4.0,4.0,4.0,0.0,4.0,4.0,4.0,4.0,3.0,4.0,4.0,4.0,4.0,4.0,4.0
2.0,0.0,4267.179487179489,4214.3589743589755,4258.97435897436,4245.128205128207,4182.564102564104,4193.846153846155,4224.615384615386,4203.589743589745,4187.179487179489,4182.564102564104,4203.589743589745,4267.692307692309,4231.794871794873,4270.256410256412,836.0,2037.0,2026.0,0.0,0.0,4.0,4.0,4.0,4.0,0.0,4.0,4.0,4.0,4.0,3.0,4.0,4.0,4.0,4.0,4.0,4.0
3.0,0.0,4252.8205128205145,4208.71794871795,4240.512820512822,4231.794871794873,4182.051282051283,4189.743589743592,4291.282051282053,4201.538461538463,4189.23076923077,4181.0256410256425,4205.128205128207,4258.97435897436,4216.923076923078,4253.846153846155,836.0,2037.0,2029.0,0.0,0.0,4.0,4.0,4.0,4.0,0.0,4.0,4.0,4.0,4.0,3.0,4.0,4.0,4.0,4.0,4.0,4.0
4.0,0.0,4236.410256410258,4217.94871794872,4221.538461538463,4227.692307692309,4182.564102564104,4178.97435897436,4275.897435897437,4188.71794871795,4180.000000000002,4175.897435897437,4197.435897435899,4240.512820512822,4197.435897435899,4230.769230769232,0.0,2036.0,2034.0,0.0,0.0,4.0,4.0,4.0,4.0,0.0,4.0,4.0,4.0,4.0,3.0,4.0,4.0,4.0,4.0,4.0,4.0
5.0,0.0,4205.128205128207,4187.179487179489,4212.307692307694,4214.871794871797,4184.615384615386,4170.256410256412,4246.153846153848,4181.0256410256425,4170.256410256412,4171.794871794873,4181.0256410256425,4222.051282051283,4178.97435897436,4200.000000000002,640.0,2038.0,2037.0,0.0,0.0,4.0,4.0,4.0,4.0,0.0,4.0,4.0,4.0,4.0,3.0,4.0,4.0,4.0,4.0,4.0,4.0
6.0,0.0,4183.589743589745,4150.769230769232,4207.179487179489,4200.000000000002,4183.589743589745,4169.743589743592,4251.282051282053,4176.923076923078,4165.128205128207,4168.71794871795,4169.743589743592,4213.333333333335,4161.0256410256425,4179.487179487181,796.0,2041.0,2040.0,0.0,0.0,4.0,4.0,4.0,4.0,0.0,4.0,4.0,4.0,4.0,3.0,4.0,4.0,4.0,4.0,4.0,4.0
7.0,0.0,4178.97435897436,4139.487179487181,4195.384615384617,4193.846153846155,4182.564102564104,4172.307692307694,4234.871794871797,4170.769230769232,4158.97435897436,4169.23076923077,4164.102564102565,4205.128205128207,4144.615384615386,4165.641025641027,860.0,2042.0,2043.0,0.0,0.0,4.0,4.0,4.0,4.0,0.0,4.0,4.0,4.0,4.0,3.0,4.0,4.0,4.0,4.0,4.0,4.0
8.0,0.0,4162.564102564104,4124.615384615386,4181.538461538463,4186.153846153848,4184.615384615386,4169.23076923077,4218.97435897436,4166.666666666668,4152.307692307694,4170.256410256412,4158.97435897436,4189.743589743592,4133.846153846155,4149.743589743592,770.0,2043.0,2046.0,0.0,0.0,4.0,4.0,4.0,4.0,0.0,4.0,4.0,4.0,4.0,3.0,4.0,4.0,4.0,4.0,4.0,4.0
9.0,0.0,4145.641025641027,4112.307692307694,4175.897435897437,4176.923076923078,4184.615384615386,4167.692307692309,4242.564102564104,4168.71794871795,4152.8205128205145,4168.20512820513,4157.435897435899,4180.512820512822,4129.23076923077,4136.923076923078,245.0,2045.0,2047.0,0.0,0.0,4.0,4.0,4.0,4.0,0.0,4.0,4.0,4.0,4.0,3.0,4.0,4.0,4.0,4.0,4.0,4.0
10.0,0.0,4144.102564102565,4106.153846153848,4178.46153846154,4170.769230769232,4182.051282051283,4169.743589743592,4231.794871794873,4169.743589743592,4154.3589743589755,4168.71794871795,4157.94871794872,4185.128205128207,4126.153846153848,4134.871794871797,861.0,2046.0,2049.0,0.0,0.0,4.0,4.0,4.0,4.0,0.0,4.0,4.0,4.0,4.0,3.0,4.0,4.0,4.0,4.0,4.0,4.0
11.0,0.0,4142.051282051283,4092.3076923076937,4176.410256410258,4166.153846153848,4180.512820512822,4167.179487179489,4168.71794871795,4166.666666666668,4150.256410256412,4167.692307692309,4157.435897435899,4184.615384615386,4124.615384615386,4134.3589743589755,834.0,2047.0,2052.0,0.0,0.0,4.0,4.0,4.0,4.0,0.0,4.0,4.0,4.0,4.0,3.0,4.0,4.0,4.0,4.0,4.0,4.0
12.0,0.0,4132.8205128205145,4080.512820512822,4165.641025641027,4161.0256410256425,4182.051282051283,4166.153846153848,4145.641025641027,4166.666666666668,4145.641025641027,4166.666666666668,4155.384615384617,4172.8205128205145,4118.97435897436,4127.692307692309,842.0,2048.0,2052.0,0.0,0.0,4.0,4.0,4.0,4.0,0.0,4.0,4.0,4.0,4.0,3.0,4.0,4.0,4.0,4.0,4.0,4.0
13.0,0.0,4122.051282051283,4074.8717948717963,4156.410256410258,4152.307692307694,4182.051282051283,4171.282051282053,4155.897435897437,4169.743589743592,4141.0256410256425,4166.666666666668,4152.8205128205145,4166.153846153848,4111.282051282053,4118.46153846154,847.0,2050.0,2051.0,0.0,0.0,4.0,4.0,4.0,4.0,0.0,4.0,4.0,4.0,4.0,3.0,4.0,4.0,4.0,4.0,4.0,4.0
14.0,0.0,4116.923076923078,4073.846153846155,4156.410256410258,4150.769230769232,4180.512820512822,4172.8205128205145,4140.512820512822,4171.794871794873,4137.435897435899,4165.641025641027,4151.794871794873,4166.666666666668,4115.897435897437,4117.94871794872,861.0,2050.0,2051.0,0.0,0.0,4.0,4.0,4.0,4.0,0.0,4.0,4.0,4.0,4.0,3.0,4.0,4.0,4.0,4.0,4.0,4.0
15.0,0.0,4119.487179487181,4074.8717948717963,4162.051282051283,4155.384615384617,4181.538461538463,4169.743589743592,4142.051282051283,4176.410256410258,4143.076923076925,4166.153846153848,4154.3589743589755,4168.20512820513,4122.051282051283,4125.641025641027,834.0,2050.0,2048.0,0.0,0.0,4.0,4.0,4.0,4.0,0.0,4.0,4.0,4.0,4.0,3.0,4.0,4.0,4.0,4.0,4.0,4.0
16.0,0.0,4124.615384615386,4075.8974358974374,4162.051282051283,4153.846153846155,4183.076923076925,4166.153846153848,4169.743589743592,4178.97435897436,4151.282051282053,4166.666666666668,4161.0256410256425,4169.743589743592,4121.0256410256425,4130.256410256412,0.0,2050.0,2048.0,0.0,0.0,4.0,4.0,4.0,4.0,0.0,4.0,4.0,4.0,4.0,3.0,4.0,4.0,4.0,4.0,4.0,4.0
17.0,0.0,4129.743589743592,4084.615384615386,4162.564102564104,4157.94871794872,4183.589743589745,4168.71794871795,4170.256410256412,4175.384615384617,4151.794871794873,4167.692307692309,4167.692307692309,4178.97435897436,4125.128205128207,4135.384615384617,0.0,2051.0,2048.0,0.0,0.0,4.0,4.0,4.0,4.0,0.0,4.0,4.0,4.0,4.0,3.0,4.0,4.0,4.0,4.0,4.0,4.0
18.0,0.0,4137.435897435899,4098.97435897436,4170.769230769232,4169.23076923077,4183.076923076925,4172.307692307694,4158.97435897436,4171.282051282053,4146.153846153848,4169.23076923077,4164.615384615386,4187.179487179489,4133.846153846155,4146.153846153848,0.0,2051.0,2047.0,0.0,0.0,4.0,4.0,4.0,4.0,0.0,4.0,4.0,4.0,4.0,3.0,4.0,4.0,4.0,4.0,4.0,4.0
19.0,0.0,4141.0256410256425,4103.589743589745,4171.282051282053,4168.20512820513,4182.051282051283,4169.743589743592,4159.487179487181,4164.102564102565,4141.538461538463,4164.615384615386,4153.333333333335,4181.0256410256425,4134.871794871797,4150.256410256412,0.0,2052.0,2047.0,0.0,0.0,4.0,4.0,4.0,4.0,0.0,4.0,4.0,4.0,4.0,3.0,4.0,4.0,4.0,4.0,4.0,4.0
20.0,0.0,4148.71794871795,4108.71794871795,4169.743589743592,4167.179487179489,4183.076923076925,4168.71794871795,4154.3589743589755,4158.46153846154,4139.487179487181,4159.487179487181,4152.307692307694,4174.3589743589755,4134.871794871797,4157.94871794872,0.0,2051.0,2048.0,0.0,0.0,4.0,4.0,4.0,4.0,0.0,4.0,4.0,4.0,4.0,3.0,4.0,4.0,4.0,4.0,4.0,4.0
21.0,0.0,4167.179487179489,4128.71794871795,4177.94871794872,4179.487179487181,4181.0256410256425,4172.307692307694,4154.871794871797,4164.102564102565,4139.487179487181,4163.076923076925,4156.923076923078,4183.589743589745,4142.564102564104,4181.538461538463,0.0,2051.0,2047.0,0.0,0.0,4.0,4.0,4.0,4.0,0.0,4.0,4.0,4.0,4.0,3.0,4.0,4.0,4.0,4.0,4.0,4.0
22.0,0.0,4197.94871794872,4157.435897435899,4192.307692307694,4196.923076923078,4180.512820512822,4171.282051282053,4190.769230769232,4170.769230769232,4144.615384615386,4168.20512820513,4163.589743589745,4204.615384615386,4165.641025641027,4217.435897435899,0.0,2050.0,2047.0,0.0,0.0,4.0,4.0,4.0,4.0,0.0,4.0,4.0,4.0,4.0,3.0,4.0,4.0,4.0,4.0,4.0,4.0
23.0,0.0,4243.076923076925,4192.307692307694,4224.615384615386,4217.94871794872,4183.076923076925,4167.179487179489,4241.0256410256425,4168.71794871795,4158.46153846154,4169.23076923077,4179.487179487181,4234.871794871797,4206.666666666668,4264.615384615386,0.0,2050.0,2047.0,0.0,0.0,4.0,4.0,4.0,4.0,0.0,4.0,4.0,4.0,4.0,3.0,4.0,4.0,4.0,4.0,4.0,4.0
24.0,0.0,4275.897435897437,4216.410256410258,4254.3589743589755,4240.512820512822,4182.564102564104,4168.20512820513,4261.538461538463,4169.23076923077,4165.641025641027,4171.282051282053,4190.256410256412,4260.512820512822,4234.3589743589755,4301.0256410256425,0.0,2049.0,2047.0,0.0,0.0,4.0,4.0,4.0,4.0,0.0,4.0,4.0,4.0,4.0,3.0,4.0,4.0,4.0,4.0,4.0,4.0
25.0,0.0,4285.128205128207,4230.256410256412,4255.384615384617,4249.23076923077,4184.615384615386,4169.743589743592,4222.564102564104,4172.307692307694,4159.487179487181,4172.307692307694,4186.666666666668,4263.589743589745,4234.871794871797,4308.20512820513,0.0,2049.0,2048.0,0.0,0.0,4.0,4.0,4.0,4.0,0.0,4.0,4.0,4.0,4.0,3.0,4.0,4.0,4.0,4.0,4.0,4.0
26.0,0.0,4289.23076923077,4242.051282051283,4251.282051282053,4247.179487179489,4186.153846153848,4171.282051282053,4149.23076923077,4170.769230769232,4159.487179487181,4170.769230769232,4186.153846153848,4260.000000000002,4234.3589743589755,4309.743589743592,0.0,2047.0,2050.0,0.0,0.0,4.0,4.0,4.0,4.0,0.0,4.0,4.0,4.0,4.0,3.0,4.0,4.0,4.0,4.0,4.0,4.0
27.0,0.0,4286.153846153848,4249.23076923077,4251.794871794873,4243.589743589745,4185.128205128207,4171.282051282053,4117.435897435899,4171.794871794873,4163.589743589745,4171.282051282053,4188.71794871795,4261.0256410256425,4237.94871794872,4309.743589743592,0.0,2048.0,2049.0,0.0,0.0,4.0,4.0,4.0,4.0,0.0,4.0,4.0,4.0,4.0,3.0,4.0,4.0,4.0,4.0,4.0,4.0
28.0,0.0,4273.333333333335,4238.97435897436,4245.128205128207,4237.94871794872,4182.051282051283,4170.256410256412,4141.538461538463,4175.897435897437,4160.512820512822,4169.743589743592,4185.128205128207,4255.384615384617,4233.333333333335,4295.384615384617,0.0,2047.0,2048.0,0.0,0.0,4.0,4.0,4.0,4.0,0.0,4.0,4.0,4.0,4.0,3.0,4.0,4.0,4.0,4.0,4.0,4.0
29.0,0.0,4262.051282051283,4221.538461538463,4237.94871794872,4232.8205128205145,4179.487179487181,4171.282051282053,4167.179487179489,4182.564102564104,4163.076923076925,4168.20512820513,4190.769230769232,4253.333333333335,4227.179487179489,4281.0256410256425,0.0,2046.0,2048.0,0.0,0.0,4.0,4.0,4.0,4.0,0.0,4.0,4.0,4.0,4.0,3.0,4.0,4.0,4.0,4.0,4.0,4.0
30.0,0.0,4252.8205128205145,4209.743589743592,4237.435897435899,4227.692307692309,4183.589743589745,4179.487179487181,4160.512820512822,4194.871794871797,4174.871794871797,4173.846153846155,4201.538461538463,4255.384615384617,4220.512820512822,4273.846153846155,0.0,2045.0,2048.0,0.0,0.0,4.0,4.0,4.0,4.0,0.0,4.0,4.0,4.0,4.0,3.0,4.0,4.0,4.0,4.0,4.0,4.0
31.0,0.0,4233.846153846155,4200.000000000002,4225.641025641027,4214.871794871797,4184.102564102565,4186.666666666668,4147.692307692309,4196.923076923078,4174.871794871797,4175.384615384617,4194.871794871797,4244.102564102565,4202.564102564104,4251.282051282053,0.0,2045.0,2046.0,0.0,0.0,4.0,4.0,4.0,4.0,0.0,4.0,4.0,4.0,4.0,3.0,4.0,4.0,4.0,4.0,4.0,4.0
32.0,0.0,4208.20512820513,4182.051282051283,4201.538461538463,4203.076923076925,4182.564102564104,4179.487179487181,4176.410256410258,4188.20512820513,4162.564102564104,4170.256410256412,4179.487179487181,4225.128205128207,4179.487179487181,4218.97435897436,0.0,2045.0,2046.0,0.0,0.0,4.0,4.0,4.0,4.0,0.0,4.0,4.0,4.0,4.0,3.0,4.0,4.0,4.0,4.0,4.0,4.0
33.0,0.0,4186.666666666668,4151.794871794873,4185.641025641027,4195.897435897437,4185.128205128207,4171.794871794873,4243.076923076925,4181.538461538463,4159.487179487181,4167.692307692309,4171.282051282053,4210.769230769232,4165.641025641027,4197.94871794872,0.0,2044.0,2043.0,0.0,0.0,4.0,4.0,4.0,4.0,0.0,4.0,4.0,4.0,4.0,3.0,4.0,4.0,4.0,4.0,4.0,4.0
34.0,0.0,4174.871794871797,4136.923076923078,4176.923076923078,4190.256410256412,4185.128205128207,4174.3589743589755,4253.333333333335,4185.128205128207,4163.589743589745,4170.769230769232,4174.871794871797,4206.153846153848,4163.589743589745,4187.692307692309,0.0,2044.0,2037.0,0.0,0.0,4.0,4.0,4.0,4.0,0.0,4.0,4.0,4.0,4.0,3.0,4.0,4.0,4.0,4.0,4.0,4.0
35.0,0.0,4172.8205128205145,4148.20512820513,4176.410256410258,4191.282051282053,4182.051282051283,4178.46153846154,4176.923076923078,4195.384615384617,4172.307692307694,4172.8205128205145,4186.666666666668,4212.307692307694,4167.179487179489,4185.128205128207,0.0,2042.0,2036.0,0.0,0.0,4.0,4.0,4.0,4.0,0.0,4.0,4.0,4.0,4.0,3.0,4.0,4.0,4.0,4.0,4.0,4.0
36.0,0.0,4165.641025641027,4146.666666666668,4178.97435897436,4191.794871794873,4179.487179487181,4173.333333333335,4109.743589743592,4196.410256410258,4172.8205128205145,4171.794871794873,4190.769230769232,4210.256410256412,4160.512820512822,4178.97435897436,0.0,2041.0,2033.0,0.0,0.0,4.0,4.0,4.0,4.0,0.0,4.0,4.0,4.0,4.0,3.0,4.0,4.0,4.0,4.0,4.0,4.0
37.0,0.0,4149.743589743592,4125.128205128207,4175.384615384617,4180.000000000002,4181.0256410256425,4168.71794871795,4124.102564102565,4185.641025641027,4162.051282051283,4168.71794871795,4178.97435897436,4197.435897435899,4145.128205128207,4163.076923076925,0.0,2041.0,2033.0,0.0,0.0,4.0,4.0,4.0,4.0,0.0,4.0,4.0,4.0,4.0,3.0,4.0,4.0,4.0,4.0,4.0,4.0
38.0,0.0,4143.076923076925,4113.846153846155,4173.846153846155,4170.769230769232,4183.589743589745,4171.282051282053,4187.179487179489,4177.94871794872,4154.871794871797,4167.692307692309,4169.23076923077,4195.384615384617,4138.46153846154,4154.3589743589755,0.0,2040.0,2033.0,0.0,0.0,4.0,4.0,4.0,4.0,0.0,4.0,4.0,4.0,4.0,3.0,4.0,4.0,4.0,4.0,4.0,4.0
39.0,0.0,4138.46153846154,4110.769230769232,4171.282051282053,4170.256410256412,4182.051282051283,4171.282051282053,4227.692307692309,4176.410256410258,4153.846153846155,4168.20512820513,4169.23076923077,4193.333333333335,4137.435897435899,4150.256410256412,0.0,2040.0,2034.0,0.0,0.0,4.0,4.0,4.0,4.0,0.0,4.0,4.0,4.0,4.0,3.0,4.0,4.0,4.0,4.0,4.0,4.0
40.0,0.0,4123.076923076925,4097.435897435899,4157.94871794872,4163.076923076925,4183.589743589745,4169.23076923077,4243.589743589745,4172.307692307694,4154.871794871797,4168.20512820513,4166.153846153848,4181.538461538463,4129.743589743592,4136.410256410258,0.0,2040.0,2035.0,0.0,0.0,4.0,4.0,4.0,4.0,0.0,4.0,4.0,4.0,4.0,3.0,4.0,4.0,4.0,4.0,4.0,4.0
41.0,0.0,4105.641025641027,4080.0000000000014,4140.000000000002,4145.641025641027,4183.076923076925,4168.71794871795,4262.051282051283,4169.743589743592,4149.743589743592,4166.153846153848,4154.3589743589755,4168.71794871795,4112.307692307694,4116.923076923078,0.0,2041.0,2036.0,0.0,0.0,4.0,4.0,4.0,4.0,0.0,4.0,4.0,4.0,4.0,3.0,4.0,4.0,4.0,4.0,4.0,4.0
42.0,0.0,4099.487179487181,4072.8205128205145,4134.3589743589755,4135.384615384617,4181.538461538463,4168.20512820513,4272.8205128205145,4176.410256410258,4147.179487179489,4165.128205128207,4149.23076923077,4160.000000000002,4106.153846153848,4109.743589743592,0.0,2041.0,2037.0,0.0,0.0,4.0,4.0,4.0,4.0,0.0,4.0,4.0,4.0,4.0,3.0,4.0,4.0,4.0,4.0,4.0,4.0
43.0,0.0,4111.794871794873,4083.0769230769247,4147.179487179489,4145.641025641027,4185.128205128207,4170.256410256412,4271.794871794873,4186.153846153848,4153.846153846155,4168.20512820513,4163.076923076925,4170.256410256412,4117.94871794872,4122.051282051283,0.0,2042.0,2039.0,0.0,0.0,4.0,4.0,4.0,4.0,0.0,4.0,4.0,4.0,4.0,3.0,4.0,4.0,4.0,4.0,4.0,4.0
44.0,0.0,4125.128205128207,4094.358974358976,4160.000000000002,4156.923076923078,4185.641025641027,4172.8205128205145,4285.641025641027,4188.20512820513,4159.487179487181,4169.23076923077,4173.846153846155,4186.666666666668,4125.641025641027,4134.871794871797,0.0,2043.0,2041.0,0.0,0.0,4.0,4.0,4.0,4.0,0.0,4.0,4.0,4.0,4.0,3.0,4.0,4.0,4.0,4.0,4.0,4.0
45.0,0.0,4126.153846153848,4093.846153846155,4159.487179487181,4154.3589743589755,4182.564102564104,4172.8205128205145,4305.128205128207,4176.410256410258,4158.46153846154,4167.692307692309,4172.307692307694,4187.692307692309,4123.589743589745,4133.846153846155,0.0,2043.0,2043.0,0.0,0.0,4.0,4.0,4.0,4.0,0.0,4.0,4.0,4.0,4.0,3.0,4.0,4.0,4.0,4.0,4.0,4.0
46.0,0.0,4124.615384615386,4089.230769230771,4156.410256410258,4153.333333333335,4183.589743589745,4170.256410256412,4287.179487179489,4169.23076923077,4155.384615384617,4168.71794871795,4171.794871794873,4184.615384615386,4124.102564102565,4128.20512820513,0.0,2042.0,2045.0,0.0,0.0,4.0,4.0,4.0,4.0,0.0,4.0,4.0,4.0,4.0,3.0,4.0,4.0,4.0,4.0,4.0,4.0
47.0,0.0,4120.512820512822,4083.0769230769247,4152.8205128205145,4149.743589743592,4184.102564102565,4166.666666666668,4224.102564102565,4164.615384615386,4148.20512820513,4168.71794871795,4166.153846153848,4179.487179487181,4119.487179487181,4124.102564102565,0.0,2043.0,2045.0,0.0,0.0,4.0,4.0,4.0,4.0,0.0,4.0,4.0,4.0,4.0,3.0,4.0,4.0,4.0,4.0,4.0,4.0
