COUNTER,INTERPOLATED,AF3,F7,F3,FC5,T7,P7,O1,O2,P8,T8,FC6,F4,F8,AF4,RAW_CQ,GYROX,GYROY,MARKER,SYNC,CQ_AF3,CQ_F7,CQ_F3,CQ_FC5,CQ_T7,CQ_P7,CQ_O1,CQ_O2,CQ_P8,CQ_T8,CQ_FC6,CQ_F4,CQ_F8,CQ_AF4,CQ_CMS,CQ_DRL
18.0,0.0,4122.564102564104,4149.743589743592,4144.615384615386,4157.435897435899,4181.538461538463,4163.589743589745,4103.589743589745,4186.666666666668,4181.0256410256425,4193.333333333335,4173.333333333335,4166.666666666668,4125.641025641027,4120.000000000002,0.0,2048.0,2052.0,0.0,0.0,0.0,0.0,0.0,0.0,0.0,0.0,0.0,0.0,0.0,0.0,0.0,0.0,0.0,0.0,0.0,0.0
19.0,0.0,4117.94871794872,4143.076923076925,4141.538461538463,4156.410256410258,4186.666666666668,4165.128205128207,4111.794871794873,4187.179487179489,4177.94871794872,4187.179487179489,4173.333333333335,4165.641025641027,4122.564102564104,4122.564102564104,0.0,2046.0,2052.0,0.0,0.0,0.0,0.0,0.0,0.0,0.0,0.0,0.0,0.0,0.0,0.0,0.0,0.0,0.0,0.0,0.0,0.0
20.0,0.0,4112.307692307694,4137.94871794872,4136.923076923078,4152.307692307694,4186.666666666668,4162.564102564104,4105.128205128207,4184.615384615386,4176.410256410258,4190.256410256412,4166.666666666668,4157.94871794872,4117.94871794872,4117.435897435899,0.0,2048.0,2050.0,0.0,0.0,0.0,0.0,0.0,0.0,0.0,0.0,0.0,0.0,0.0,0.0,0.0,0.0,0.0,0.0,0.0,0.0
21.0,0.0,4117.94871794872,4148.71794871795,4141.0256410256425,4150.769230769232,4184.615384615386,4159.487179487181,4125.641025641027,4191.282051282053,4181.538461538463,4195.384615384617,4172.8205128205145,4163.076923076925,4126.666666666668,4116.923076923078,0.0,2048.0,2049.0,0.0,0.0,0.0,0.0,0.0,0.0,0.0,0.0,0.0,0.0,0.0,0.0,0.0,0.0,0.0,0.0,0.0,0.0
22.0,0.0,4129.743589743592,4156.923076923078,4150.256410256412,4157.94871794872,4188.71794871795,4165.641025641027,4153.846153846155,4198.97435897436,4188.20512820513,4195.897435897437,4185.128205128207,4172.307692307694,4138.97435897436,4131.794871794873,0.0,2047.0,2047.0,0.0,0.0,0.0,0.0,0.0,0.0,0.0,0.0,0.0,0.0,0.0,0.0,0.0,0.0,0.0,0.0,0.0,0.0
23.0,0.0,4138.97435897436,4153.846153846155,4158.97435897436,4168.71794871795,4186.153846153848,4171.282051282053,4124.102564102565,4199.487179487181,4194.3589743589755,4197.435897435899,4188.20512820513,4175.897435897437,4141.538461538463,4144.102564102565,0.0,2047.0,2046.0,0.0,0.0,0.0,0.0,0.0,0.0,0.0,0.0,0.0,0.0,0.0,0.0,0.0,0.0,0.0,0.0,0.0,0.0
24.0,0.0,4135.897435897437,4153.333333333335,4159.487179487181,4164.615384615386,4184.102564102565,4171.282051282053,4094.358974358976,4197.435897435899,4195.384615384617,4199.487179487181,4186.153846153848,4176.410256410258,4140.000000000002,4140.000000000002,0.0,2049.0,2047.0,0.0,0.0,0.0,0.0,0.0,0.0,0.0,0.0,0.0,0.0,0.0,0.0,0.0,0.0,0.0,0.0,0.0,0.0
25.0,0.0,4127.692307692309,4151.794871794873,4150.769230769232,4155.897435897437,4184.615384615386,4168.20512820513,4130.769230769232,4192.307692307694,4186.666666666668,4198.97435897436,4183.589743589745,4171.794871794873,4140.000000000002,4132.307692307694,0.0,2049.0,2046.0,0.0,0.0,0.0,0.0,0.0,0.0,0.0,0.0,0.0,0.0,0.0,0.0,0.0,0.0,0.0,0.0,0.0,0.0
26.0,0.0,4131.282051282053,4150.256410256412,4149.23076923077,4161.0256410256425,4186.666666666668,4171.282051282053,4193.333333333335,4186.153846153848,4181.538461538463,4195.897435897437,4180.512820512822,4168.20512820513,4138.97435897436,4135.384615384617,0.0,2048.0,2046.0,0.0,0.0,0.0,0.0,0.0,0.0,0.0,0.0,0.0,0.0,0.0,0.0,0.0,0.0,0.0,0.0,0.0,0.0
27.0,0.0,4141.538461538463,4160.000000000002,4159.487179487181,4171.282051282053,4187.179487179489,4177.435897435899,4223.589743589745,4191.794871794873,4190.769230769232,4193.333333333335,4183.589743589745,4176.923076923078,4141.0256410256425,4141.538461538463,0.0,2048.0,2047.0,0.0,0.0,0.0,0.0,0.0,0.0,0.0,0.0,0.0,0.0,0.0,0.0,0.0,0.0,0.0,0.0,0.0,0.0
28.0,0.0,4141.538461538463,4166.153846153848,4163.076923076925,4171.282051282053,4182.051282051283,4176.410256410258,4210.256410256412,4200.512820512822,4196.410256410258,4195.384615384617,4184.615384615386,4183.589743589745,4141.538461538463,4138.97435897436,0.0,2049.0,2048.0,0.0,0.0,0.0,0.0,0.0,0.0,0.0,0.0,0.0,0.0,0.0,0.0,0.0,0.0,0.0,0.0,0.0,0.0
29.0,0.0,4138.97435897436,4161.0256410256425,4159.487179487181,4168.71794871795,4186.153846153848,4175.384615384617,4190.769230769232,4200.000000000002,4195.897435897437,4201.538461538463,4184.615384615386,4177.435897435899,4138.97435897436,4138.97435897436,0.0,2049.0,2049.0,0.0,0.0,0.0,0.0,0.0,0.0,0.0,0.0,0.0,0.0,0.0,0.0,0.0,0.0,0.0,0.0,0.0,0.0
30.0,0.0,4142.564102564104,4162.051282051283,4162.051282051283,4169.743589743592,4186.153846153848,4177.435897435899,4201.0256410256425,4200.000000000002,4199.487179487181,4202.564102564104,4191.282051282053,4176.923076923078,4146.666666666668,4141.0256410256425,0.0,2049.0,2047.0,0.0,0.0,0.0,0.0,0.0,0.0,0.0,0.0,0.0,0.0,0.0,0.0,0.0,0.0,0.0,0.0,0.0,0.0
31.0,0.0,4141.0256410256425,4168.71794871795,4162.564102564104,4169.743589743592,4182.051282051283,4179.487179487181,4206.153846153848,4203.076923076925,4198.97435897436,4196.410256410258,4189.23076923077,4178.97435897436,4153.846153846155,4136.923076923078,0.0,2047.0,2048.0,0.0,0.0,0.0,0.0,0.0,0.0,0.0,0.0,0.0,0.0,0.0,0.0,0.0,0.0,0.0,0.0,0.0,0.0
32.0,0.0,4137.94871794872,4167.179487179489,4157.435897435899,4170.769230769232,4185.641025641027,4178.46153846154,4186.153846153848,4200.000000000002,4193.333333333335,4194.3589743589755,4183.589743589745,4176.923076923078,4154.3589743589755,4137.94871794872,0.0,2047.0,2048.0,0.0,0.0,0.0,0.0,0.0,0.0,0.0,0.0,0.0,0.0,0.0,0.0,0.0,0.0,0.0,0.0,0.0,0.0
33.0,0.0,4144.102564102565,4165.641025641027,4155.384615384617,4171.794871794873,4184.615384615386,4175.897435897437,4182.564102564104,4195.897435897437,4192.8205128205145,4197.435897435899,4189.23076923077,4181.0256410256425,4160.512820512822,4145.641025641027,0.0,2046.0,2048.0,0.0,0.0,0.0,0.0,0.0,0.0,0.0,0.0,0.0,0.0,0.0,0.0,0.0,0.0,0.0,0.0,0.0,0.0
34.0,0.0,4151.282051282053,4170.256410256412,4158.46153846154,4172.8205128205145,4184.102564102565,4176.410256410258,4194.3589743589755,4199.487179487181,4200.000000000002,4201.538461538463,4193.846153846155,4186.666666666668,4166.666666666668,4146.666666666668,0.0,2046.0,2045.0,0.0,0.0,0.0,0.0,0.0,0.0,0.0,0.0,0.0,0.0,0.0,0.0,0.0,0.0,0.0,0.0,0.0,0.0
35.0,0.0,4146.666666666668,4169.743589743592,4161.538461538463,4174.3589743589755,4184.102564102565,4172.307692307694,4176.410256410258,4198.46153846154,4202.564102564104,4202.564102564104,4190.256410256412,4177.94871794872,4161.0256410256425,4146.153846153848,0.0,2044.0,2044.0,0.0,0.0,0.0,0.0,0.0,0.0,0.0,0.0,0.0,0.0,0.0,0.0,0.0,0.0,0.0,0.0,0.0,0.0
36.0,0.0,4132.307692307694,4161.538461538463,4157.435897435899,4171.282051282053,4182.051282051283,4166.666666666668,4143.589743589745,4190.256410256412,4195.384615384617,4195.897435897437,4184.615384615386,4167.692307692309,4153.333333333335,4143.076923076925,0.0,2043.0,2042.0,0.0,0.0,0.0,0.0,0.0,0.0,0.0,0.0,0.0,0.0,0.0,0.0,0.0,0.0,0.0,0.0,0.0,0.0
37.0,0.0,4127.179487179489,4157.94871794872,4152.8205128205145,4165.641025641027,4185.641025641027,4164.102564102565,4141.0256410256425,4185.641025641027,4186.153846153848,4190.256410256412,4180.000000000002,4166.153846153848,4151.794871794873,4135.897435897437,0.0,2042.0,2042.0,0.0,0.0,0.0,0.0,0.0,0.0,0.0,0.0,0.0,0.0,0.0,0.0,0.0,0.0,0.0,0.0,0.0,0.0
38.0,0.0,4132.307692307694,4164.102564102565,4154.871794871797,4165.128205128207,4184.102564102565,4166.153846153848,4169.743589743592,4186.153846153848,4186.666666666668,4193.846153846155,4179.487179487181,4169.743589743592,4153.846153846155,4140.000000000002,0.0,2041.0,2041.0,0.0,0.0,0.0,0.0,0.0,0.0,0.0,0.0,0.0,0.0,0.0,0.0,0.0,0.0,0.0,0.0,0.0,0.0
39.0,0.0,4138.97435897436,4167.692307692309,4160.512820512822,4171.794871794873,4186.666666666668,4172.307692307694,4184.102564102565,4188.71794871795,4193.333333333335,4200.512820512822,4185.128205128207,4178.46153846154,4153.846153846155,4147.692307692309,0.0,2040.0,2041.0,0.0,0.0,0.0,0.0,0.0,0.0,0.0,0.0,0.0,0.0,0.0,0.0,0.0,0.0,0.0,0.0,0.0,0.0
40.0,0.0,4147.179487179489,4170.769230769232,4168.20512820513,4180.512820512822,4186.153846153848,4175.897435897437,4167.179487179489,4193.333333333335,4193.846153846155,4197.94871794872,4188.71794871795,4185.641025641027,4151.794871794873,4149.23076923077,0.0,2039.0,2040.0,0.0,0.0,0.0,0.0,0.0,0.0,0.0,0.0,0.0,0.0,0.0,0.0,0.0,0.0,0.0,0.0,0.0,0.0
41.0,0.0,4155.384615384617,4181.0256410256425,4175.384615384617,4186.153846153848,4178.97435897436,4175.897435897437,4146.153846153848,4201.0256410256425,4197.94871794872,4196.923076923078,4194.3589743589755,4190.256410256412,4161.0256410256425,4155.897435897437,0.0,2039.0,2039.0,0.0,0.0,0.0,0.0,0.0,0.0,0.0,0.0,0.0,0.0,0.0,0.0,0.0,0.0,0.0,0.0,0.0,0.0
42.0,0.0,4156.410256410258,4183.076923076925,4179.487179487181,4188.71794871795,4183.076923076925,4178.46153846154,4120.000000000002,4206.153846153848,4206.153846153848,4202.564102564104,4204.102564102565,4195.897435897437,4170.256410256412,4166.666666666668,0.0,2039.0,2038.0,0.0,0.0,0.0,0.0,0.0,0.0,0.0,0.0,0.0,0.0,0.0,0.0,0.0,0.0,0.0,0.0,0.0,0.0
43.0,0.0,4149.743589743592,4172.8205128205145,4173.846153846155,4184.615384615386,4186.666666666668,4177.435897435899,4095.8974358974374,4202.564102564104,4201.0256410256425,4201.0256410256425,4198.46153846154,4191.794871794873,4159.487179487181,4161.0256410256425,0.0,2040.0,2038.0,0.0,0.0,0.0,0.0,0.0,0.0,0.0,0.0,0.0,0.0,0.0,0.0,0.0,0.0,0.0,0.0,0.0,0.0
44.0,0.0,4148.71794871795,4169.743589743592,4168.71794871795,4181.0256410256425,4185.128205128207,4173.846153846155,4111.794871794873,4196.923076923078,4195.897435897437,4199.487179487181,4187.179487179489,4183.589743589745,4153.333333333335,4153.846153846155,0.0,2043.0,2037.0,0.0,0.0,0.0,0.0,0.0,0.0,0.0,0.0,0.0,0.0,0.0,0.0,0.0,0.0,0.0,0.0,0.0,0.0
45.0,0.0,4156.410256410258,4179.487179487181,4174.3589743589755,4190.769230769232,4184.615384615386,4176.410256410258,4140.000000000002,4195.384615384617,4201.538461538463,4202.051282051283,4191.794871794873,4190.769230769232,4167.179487179489,4163.076923076925,0.0,2045.0,2038.0,0.0,0.0,0.0,0.0,0.0,0.0,0.0,0.0,0.0,0.0,0.0,0.0,0.0,0.0,0.0,0.0,0.0,0.0
46.0,0.0,4157.94871794872,4183.076923076925,4179.487179487181,4198.46153846154,4185.641025641027,4177.435897435899,4140.512820512822,4189.743589743592,4200.000000000002,4201.0256410256425,4192.8205128205145,4198.97435897436,4170.769230769232,4164.615384615386,0.0,2048.0,2041.0,0.0,0.0,0.0,0.0,0.0,0.0,0.0,0.0,0.0,0.0,0.0,0.0,0.0,0.0,0.0,0.0,0.0,0.0
47.0,0.0,4156.410256410258,4184.615384615386,4183.076923076925,4194.3589743589755,4188.20512820513,4174.871794871797,4157.435897435899,4187.179487179489,4199.487179487181,4198.97435897436,4191.282051282053,4198.46153846154,4165.641025641027,4163.589743589745,0.0,2049.0,2041.0,0.0,0.0,0.0,0.0,0.0,0.0,0.0,0.0,0.0,0.0,0.0,0.0,0.0,0.0,0.0,0.0,0.0,0.0
48.0,0.0,4162.564102564104,4190.256410256412,4187.179487179489,4196.410256410258,4183.076923076925,4177.435897435899,4191.282051282053,4203.076923076925,4211.794871794873,4202.051282051283,4203.589743589745,4205.641025641027,4175.384615384617,4172.8205128205145,0.0,2050.0,2043.0,0.0,0.0,0.0,0.0,0.0,0.0,0.0,0.0,0.0,0.0,0.0,0.0,0.0,0.0,0.0,0.0,0.0,0.0
49.0,0.0,4165.128205128207,4189.743589743592,4188.71794871795,4202.564102564104,4181.538461538463,4184.615384615386,4185.641025641027,4218.97435897436,4221.538461538463,4203.589743589745,4213.333333333335,4211.794871794873,4180.000000000002,4176.410256410258,0.0,2051.0,2043.0,0.0,0.0,0.0,0.0,0.0,0.0,0.0,0.0,0.0,0.0,0.0,0.0,0.0,0.0,0.0,0.0,0.0,0.0
50.0,0.0,4160.512820512822,4186.666666666668,4188.71794871795,4198.97435897436,4185.641025641027,4185.128205128207,4153.846153846155,4217.435897435899,4217.94871794872,4203.076923076925,4208.20512820513,4210.256410256412,4174.3589743589755,4171.794871794873,0.0,2053.0,2043.0,0.0,0.0,0.0,0.0,0.0,0.0,0.0,0.0,0.0,0.0,0.0,0.0,0.0,0.0,0.0,0.0,0.0,0.0
51.0,0.0,4161.538461538463,4186.666666666668,4188.20512820513,4198.97435897436,4184.615384615386,4180.000000000002,4143.589743589745,4211.794871794873,4210.256410256412,4203.076923076925,4203.076923076925,4208.71794871795,4174.3589743589755,4169.743589743592,0.0,2053.0,2044.0,0.0,0.0,0.0,0.0,0.0,0.0,0.0,0.0,0.0,0.0,0.0,0.0,0.0,0.0,0.0,0.0,0.0,0.0
52.0,0.0,4161.538461538463,4185.641025641027,4185.128205128207,4201.0256410256425,4185.128205128207,4181.0256410256425,4149.743589743592,4207.179487179489,4203.076923076925,4201.0256410256425,4198.97435897436,4203.589743589745,4172.8205128205145,4167.179487179489,0.0,2053.0,2044.0,0.0,0.0,0.0,0.0,0.0,0.0,0.0,0.0,0.0,0.0,0.0,0.0,0.0,0.0,0.0,0.0,0.0,0.0
53.0,0.0,4153.846153846155,4182.051282051283,4175.384615384617,4190.769230769232,4182.051282051283,4180.000000000002,4149.23076923077,4200.512820512822,4197.435897435899,4200.000000000002,4191.282051282053,4188.20512820513,4166.666666666668,4155.384615384617,0.0,2055.0,2043.0,0.0,0.0,0.0,0.0,0.0,0.0,0.0,0.0,0.0,0.0,0.0,0.0,0.0,0.0,0.0,0.0,0.0,0.0
54.0,0.0,4147.179487179489,4181.0256410256425,4171.282051282053,4185.641025641027,4181.538461538463,4176.410256410258,4148.20512820513,4198.46153846154,4194.871794871797,4200.512820512822,4190.769230769232,4182.564102564104,4165.641025641027,4150.769230769232,0.0,2054.0,2042.0,0.0,0.0,0.0,0.0,0.0,0.0,0.0,0.0,0.0,0.0,0.0,0.0,0.0,0.0,0.0,0.0,0.0,0.0
55.0,0.0,4148.71794871795,4175.897435897437,4172.307692307694,4187.179487179489,4185.641025641027,4177.94871794872,4138.97435897436,4199.487179487181,4195.384615384617,4200.512820512822,4190.256410256412,4188.20512820513,4162.051282051283,4155.897435897437,0.0,2055.0,2043.0,0.0,0.0,0.0,0.0,0.0,0.0,0.0,0.0,0.0,0.0,0.0,0.0,0.0,0.0,0.0,0.0,0.0,0.0
56.0,0.0,4145.641025641027,4168.20512820513,4172.307692307694,4179.487179487181,4182.564102564104,4173.333333333335,4125.128205128207,4196.923076923078,4193.846153846155,4200.512820512822,4187.179487179489,4186.153846153848,4156.923076923078,4155.897435897437,0.0,2055.0,2044.0,0.0,0.0,0.0,0.0,0.0,0.0,0.0,0.0,0.0,0.0,0.0,0.0,0.0,0.0,0.0,0.0,0.0,0.0
57.0,0.0,4143.076923076925,4169.743589743592,4172.8205128205145,4174.871794871797,4184.615384615386,4168.20512820513,4149.743589743592,4195.384615384617,4190.769230769232,4200.512820512822,4189.23076923077,4184.102564102565,4159.487179487181,4153.846153846155,0.0,2053.0,2045.0,0.0,0.0,0.0,0.0,0.0,0.0,0.0,0.0,0.0,0.0,0.0,0.0,0.0,0.0,0.0,0.0,0.0,0.0
58.0,0.0,4146.666666666668,4171.794871794873,4169.23076923077,4177.435897435899,4185.641025641027,4166.666666666668,4184.102564102565,4193.846153846155,4185.641025641027,4198.46153846154,4187.179487179489,4185.128205128207,4158.97435897436,4151.794871794873,0.0,2052.0,2045.0,0.0,0.0,0.0,0.0,0.0,0.0,0.0,0.0,0.0,0.0,0.0,0.0,0.0,0.0,0.0,0.0,0.0,0.0
59.0,0.0,4146.153846153848,4169.743589743592,4164.615384615386,4174.3589743589755,4182.051282051283,4165.128205128207,4178.97435897436,4191.282051282053,4185.128205128207,4197.94871794872,4185.128205128207,4184.615384615386,4155.897435897437,4151.794871794873,0.0,2052.0,2046.0,0.0,0.0,0.0,0.0,0.0,0.0,0.0,0.0,0.0,0.0,0.0,0.0,0.0,0.0,0.0,0.0,0.0,0.0
60.0,0.0,4145.641025641027,4168.71794871795,4169.743589743592,4172.307692307694,4182.564102564104,4167.179487179489,4155.384615384617,4189.743589743592,4189.23076923077,4199.487179487181,4187.692307692309,4187.179487179489,4158.46153846154,4154.871794871797,0.0,2051.0,2047.0,0.0,0.0,0.0,0.0,0.0,0.0,0.0,0.0,0.0,0.0,0.0,0.0,0.0,0.0,0.0,0.0,0.0,0.0
61.0,0.0,4146.666666666668,4165.128205128207,4170.256410256412,4172.307692307694,4181.0256410256425,4167.692307692309,4143.589743589745,4183.589743589745,4184.615384615386,4197.435897435899,4183.076923076925,4186.153846153848,4156.923076923078,4151.282051282053,0.0,2050.0,2046.0,0.0,0.0,0.0,0.0,0.0,0.0,0.0,0.0,0.0,0.0,0.0,0.0,0.0,0.0,0.0,0.0,0.0,0.0
62.0,0.0,4144.615384615386,4165.641025641027,4167.179487179489,4171.282051282053,4184.615384615386,4167.692307692309,4140.000000000002,4183.589743589745,4184.102564102565,4197.435897435899,4182.564102564104,4184.102564102565,4158.97435897436,4147.692307692309,0.0,2048.0,2046.0,0.0,0.0,0.0,0.0,0.0,0.0,0.0,0.0,0.0,0.0,0.0,0.0,0.0,0.0,0.0,0.0,0.0,0.0
63.0,0.0,4148.20512820513,4174.3589743589755,4170.769230769232,4176.410256410258,4186.153846153848,4168.71794871795,4147.179487179489,4197.94871794872,4198.46153846154,4201.0256410256425,4195.384615384617,4191.282051282053,4168.71794871795,4156.410256410258,0.0,2047.0,2045.0,0.0,0.0,0.0,0.0,0.0,0.0,0.0,0.0,0.0,0.0,0.0,0.0,0.0,0.0,0.0,0.0,0.0,0.0
64.0,0.0,4156.923076923078,4181.538461538463,4173.333333333335,4184.615384615386,4184.615384615386,4172.8205128205145,4163.589743589745,4204.102564102565,4205.641025641027,4201.0256410256425,4202.564102564104,4200.512820512822,4174.3589743589755,4165.128205128207,823.0,2047.0,2045.0,0.0,0.0,0.0,0.0,4.0,0.0,0.0,0.0,0.0,0.0,0.0,0.0,0.0,0.0,0.0,0.0,4.0,4.0
65.0,0.0,4158.97435897436,4185.128205128207,4173.333333333335,4186.666666666668,4185.641025641027,4177.94871794872,4175.897435897437,4201.538461538463,4205.128205128207,4200.000000000002,4203.589743589745,4200.000000000002,4178.97435897436,4167.692307692309,852.0,2046.0,2044.0,0.0,0.0,0.0,0.0,4.0,4.0,0.0,0.0,0.0,0.0,0.0,0.0,0.0,0.0,0.0,0.0,4.0,4.0
66.0,0.0,4155.897435897437,4184.615384615386,4172.8205128205145,4185.641025641027,4182.564102564104,4176.923076923078,4177.94871794872,4210.256410256412,4214.871794871797,4202.564102564104,4209.23076923077,4198.46153846154,4186.666666666668,4169.743589743592,842.0,2043.0,2043.0,0.0,0.0,4.0,0.0,4.0,4.0,0.0,0.0,0.0,0.0,0.0,0.0,0.0,0.0,0.0,0.0,4.0,4.0
67.0,0.0,4154.871794871797,4183.589743589745,4170.256410256412,4184.615384615386,4184.615384615386,4175.897435897437,4184.615384615386,4215.897435897437,4217.435897435899,4203.589743589745,4211.794871794873,4197.435897435899,4186.666666666668,4168.20512820513,842.0,2043.0,2043.0,0.0,0.0,4.0,4.0,4.0,4.0,0.0,0.0,0.0,0.0,0.0,0.0,0.0,0.0,0.0,0.0,4.0,4.0
68.0,0.0,4151.794871794873,4190.256410256412,4167.179487179489,4184.102564102565,4185.641025641027,4176.410256410258,4215.897435897437,4203.076923076925,4203.076923076925,4201.538461538463,4200.512820512822,4189.743589743592,4183.589743589745,4163.589743589745,0.0,2042.0,2042.0,0.0,0.0,4.0,4.0,4.0,4.0,0.0,0.0,0.0,0.0,0.0,0.0,0.0,0.0,0.0,0.0,4.0,4.0
69.0,0.0,4149.743589743592,4193.333333333335,4164.615384615386,4181.538461538463,4184.102564102565,4171.794871794873,4247.179487179489,4188.20512820513,4190.256410256412,4198.46153846154,4186.153846153848,4182.051282051283,4178.46153846154,4158.97435897436,570.0,2042.0,2043.0,0.0,0.0,4.0,4.0,4.0,4.0,0.0,4.0,0.0,0.0,0.0,0.0,0.0,0.0,0.0,0.0,4.0,4.0
70.0,0.0,4161.538461538463,4198.46153846154,4167.692307692309,4182.564102564104,4189.23076923077,4167.692307692309,4249.743589743592,4182.051282051283,4186.666666666668,4196.923076923078,4183.076923076925,4183.589743589745,4178.97435897436,4166.153846153848,804.0,2042.0,2043.0,0.0,0.0,4.0,4.0,4.0,4.0,0.0,4.0,4.0,0.0,0.0,0.0,0.0,0.0,0.0,0.0,4.0,4.0
71.0,0.0,4186.153846153848,4223.589743589745,4178.97435897436,4195.897435897437,4188.20512820513,4169.743589743592,4238.46153846154,4188.71794871795,4191.794871794873,4199.487179487181,4191.282051282053,4196.923076923078,4200.512820512822,4192.8205128205145,854.0,2042.0,2043.0,0.0,0.0,4.0,4.0,4.0,4.0,0.0,4.0,4.0,4.0,0.0,0.0,0.0,0.0,0.0,0.0,4.0,4.0
72.0,0.0,4215.384615384617,4255.384615384617,4195.384615384617,4213.333333333335,4186.666666666668,4175.384615384617,4220.512820512822,4200.512820512822,4197.435897435899,4200.000000000002,4196.923076923078,4210.769230769232,4221.538461538463,4223.589743589745,882.0,2041.0,2041.0,0.0,0.0,4.0,4.0,4.0,4.0,0.0,4.0,4.0,4.0,4.0,0.0,0.0,0.0,0.0,0.0,4.0,4.0
73.0,0.0,4247.692307692309,4281.0256410256425,4216.410256410258,4227.692307692309,4185.641025641027,4176.410256410258,4191.794871794873,4203.076923076925,4197.435897435899,4201.538461538463,4200.512820512822,4229.23076923077,4242.051282051283,4258.46153846154,204.0,2040.0,2042.0,0.0,0.0,4.0,4.0,4.0,4.0,0.0,4.0,4.0,4.0,4.0,2.0,0.0,0.0,0.0,0.0,4.0,4.0
74.0,0.0,4290.256410256412,4316.410256410258,4240.512820512822,4249.23076923077,4183.589743589745,4178.46153846154,4183.589743589745,4205.641025641027,4208.20512820513,4205.641025641027,4218.46153846154,4262.051282051283,4288.20512820513,4308.71794871795,864.0,2041.0,2041.0,0.0,0.0,4.0,4.0,4.0,4.0,0.0,4.0,4.0,4.0,4.0,2.0,0.0,0.0,4.0,0.0,4.0,4.0
75.0,0.0,4332.307692307694,4357.435897435899,4266.153846153848,4273.846153846155,4186.666666666668,4184.615384615386,4194.871794871797,4216.410256410258,4222.564102564104,4208.20512820513,4236.923076923078,4294.3589743589755,4328.71794871795,4358.46153846154,829.0,2039.0,2043.0,0.0,0.0,4.0,4.0,4.0,4.0,0.0,4.0,4.0,4.0,4.0,2.0,0.0,0.0,4.0,4.0,4.0,4.0
76.0,0.0,4353.333333333335,4375.384615384617,4279.487179487181,4285.128205128207,4186.666666666668,4183.076923076925,4218.97435897436,4216.410256410258,4220.512820512822,4209.23076923077,4236.923076923078,4305.641025641027,4340.000000000002,4383.589743589745,874.0,2039.0,2042.0,0.0,0.0,4.0,4.0,4.0,4.0,0.0,4.0,4.0,4.0,4.0,2.0,4.0,0.0,4.0,4.0,4.0,4.0
77.0,0.0,4351.794871794873,4367.179487179488,4272.8205128205145,4280.000000000002,4186.666666666668,4176.410256410258,4220.000000000002,4205.128205128207,4215.897435897437,4207.692307692309,4231.282051282053,4301.538461538463,4336.410256410258,4383.589743589745,854.0,2039.0,2042.0,0.0,0.0,4.0,4.0,4.0,4.0,0.0,4.0,4.0,4.0,4.0,2.0,4.0,4.0,4.0,4.0,4.0,4.0
78.0,0.0,4350.256410256412,4357.435897435899,4270.256410256412,4269.23076923077,4187.179487179489,4174.871794871797,4141.0256410256425,4198.97435897436,4218.46153846154,4203.589743589745,4230.769230769232,4298.97435897436,4331.282051282053,4377.94871794872,864.0,2040.0,2042.0,0.0,0.0,4.0,4.0,4.0,4.0,0.0,4.0,4.0,4.0,4.0,2.0,4.0,4.0,4.0,4.0,4.0,4.0
79.0,0.0,4354.3589743589755,4361.538461538463,4276.923076923078,4267.179487179489,4184.102564102565,4179.487179487181,4099.487179487181,4201.538461538463,4217.435897435899,4202.564102564104,4232.307692307694,4298.46153846154,4329.743589743592,4375.897435897437,829.0,2040.0,2041.0,0.0,0.0,4.0,4.0,4.0,4.0,0.0,4.0,4.0,4.0,4.0,2.0,4.0,4.0,4.0,4.0,4.0,4.0
80.0,0.0,4347.179487179488,4352.307692307694,4271.794871794873,4266.666666666668,4188.20512820513,4182.051282051283,4164.615384615386,4203.076923076925,4215.897435897437,4205.128205128207,4229.23076923077,4296.923076923078,4325.641025641027,4367.179487179488,874.0,2041.0,2041.0,0.0,0.0,4.0,4.0,4.0,4.0,0.0,4.0,4.0,4.0,4.0,2.0,4.0,4.0,4.0,4.0,4.0,4.0
81.0,0.0,4320.512820512822,4315.384615384617,4253.333333333335,4255.384615384617,4187.179487179489,4179.487179487181,4186.153846153848,4196.410256410258,4208.20512820513,4201.538461538463,4218.97435897436,4281.538461538463,4297.94871794872,4340.000000000002,854.0,2041.0,2041.0,0.0,0.0,4.0,4.0,4.0,4.0,0.0,4.0,4.0,4.0,4.0,2.0,4.0,4.0,4.0,4.0,4.0,4.0
82.0,0.0,4294.3589743589755,4293.333333333335,4241.538461538463,4245.128205128207,4184.102564102565,4181.538461538463,4143.589743589745,4191.794871794873,4195.897435897437,4198.97435897436,4211.282051282053,4263.589743589745,4269.23076923077,4311.282051282053,864.0,2041.0,2042.0,0.0,0.0,4.0,4.0,4.0,4.0,0.0,4.0,4.0,4.0,4.0,2.0,4.0,4.0,4.0,4.0,4.0,4.0
83.0,0.0,4288.20512820513,4298.46153846154,4237.435897435899,4241.538461538463,4184.102564102565,4185.128205128207,4156.923076923078,4197.94871794872,4203.076923076925,4202.051282051283,4215.897435897437,4260.512820512822,4263.076923076925,4297.435897435899,829.0,2042.0,2042.0,0.0,0.0,4.0,4.0,4.0,4.0,0.0,4.0,4.0,4.0,4.0,2.0,4.0,4.0,4.0,4.0,4.0,4.0
84.0,0.0,4278.97435897436,4293.846153846155,4229.743589743592,4234.3589743589755,4181.0256410256425,4180.000000000002,4183.589743589745,4203.076923076925,4214.871794871797,4202.051282051283,4218.46153846154,4257.435897435899,4254.871794871797,4283.076923076925,874.0,2042.0,2042.0,0.0,0.0,4.0,4.0,4.0,4.0,0.0,4.0,4.0,4.0,4.0,2.0,4.0,4.0,4.0,4.0,4.0,4.0
85.0,0.0,4257.435897435899,4272.307692307694,4221.0256410256425,4222.051282051283,4185.641025641027,4174.871794871797,4158.97435897436,4200.512820512822,4206.666666666668,4201.538461538463,4213.333333333335,4241.538461538463,4233.333333333335,4263.589743589745,854.0,2040.0,2040.0,0.0,0.0,4.0,4.0,4.0,4.0,0.0,4.0,4.0,4.0,4.0,2.0,4.0,4.0,4.0,4.0,4.0,4.0
86.0,0.0,4242.051282051283,4256.410256410258,4215.384615384617,4216.923076923078,4187.179487179489,4176.410256410258,4151.794871794873,4198.97435897436,4198.46153846154,4202.051282051283,4210.769230769232,4232.307692307694,4220.000000000002,4245.641025641027,864.0,2039.0,2041.0,0.0,0.0,4.0,4.0,4.0,4.0,0.0,4.0,4.0,4.0,4.0,2.0,4.0,4.0,4.0,4.0,4.0,4.0
87.0,0.0,4234.3589743589755,4247.179487179489,4211.282051282053,4217.435897435899,4186.666666666668,4179.487179487181,4164.615384615386,4198.97435897436,4204.615384615386,4202.564102564104,4208.71794871795,4233.333333333335,4216.410256410258,4227.179487179489,829.0,2039.0,2042.0,0.0,0.0,4.0,4.0,4.0,4.0,0.0,4.0,4.0,4.0,4.0,2.0,4.0,4.0,4.0,4.0,4.0,4.0
88.0,0.0,4215.897435897437,4227.179487179489,4199.487179487181,4205.641025641027,4187.179487179489,4177.435897435899,4164.615384615386,4191.282051282053,4201.538461538463,4202.051282051283,4204.615384615386,4221.538461538463,4202.051282051283,4205.641025641027,874.0,2038.0,2046.0,0.0,0.0,4.0,4.0,4.0,4.0,0.0,4.0,4.0,4.0,4.0,2.0,4.0,4.0,4.0,4.0,4.0,4.0
89.0,0.0,4181.538461538463,4198.97435897436,4175.897435897437,4180.000000000002,4182.564102564104,4168.20512820513,4175.897435897437,4182.564102564104,4185.128205128207,4200.000000000002,4193.333333333335,4196.923076923078,4175.897435897437,4177.94871794872,854.0,2037.0,2049.0,0.0,0.0,4.0,4.0,4.0,4.0,0.0,4.0,4.0,4.0,4.0,2.0,4.0,4.0,4.0,4.0,4.0,4.0
90.0,0.0,4165.128205128207,4185.128205128207,4164.102564102565,4165.641025641027,4184.102564102565,4162.051282051283,4204.102564102565,4184.102564102565,4182.051282051283,4199.487179487181,4185.128205128207,4185.641025641027,4166.666666666668,4157.94871794872,864.0,2036.0,2050.0,0.0,0.0,4.0,4.0,4.0,4.0,0.0,4.0,4.0,4.0,4.0,2.0,4.0,4.0,4.0,4.0,4.0,4.0
91.0,0.0,4169.23076923077,4183.589743589745,4166.153846153848,4171.794871794873,4184.615384615386,4164.102564102565,4212.8205128205145,4187.179487179489,4188.20512820513,4203.589743589745,4186.666666666668,4190.256410256412,4168.20512820513,4153.846153846155,829.0,2037.0,2050.0,0.0,0.0,4.0,4.0,4.0,4.0,0.0,4.0,4.0,4.0,4.0,2.0,4.0,4.0,4.0,4.0,4.0,4.0
92.0,0.0,4152.307692307694,4168.20512820513,4157.94871794872,4165.128205128207,4184.102564102565,4161.0256410256425,4218.46153846154,4176.923076923078,4180.512820512822,4197.435897435899,4181.0256410256425,4179.487179487181,4154.871794871797,4143.589743589745,874.0,2036.0,2052.0,0.0,0.0,4.0,4.0,4.0,4.0,0.0,4.0,4.0,4.0,4.0,2.0,4.0,4.0,4.0,4.0,4.0,4.0
93.0,0.0,4125.641025641027,4150.769230769232,4141.0256410256425,4147.179487179489,4185.641025641027,4153.846153846155,4235.384615384617,4164.102564102565,4164.615384615386,4188.71794871795,4165.641025641027,4157.94871794872,4135.897435897437,4122.051282051283,854.0,2038.0,2051.0,0.0,0.0,4.0,4.0,4.0,4.0,0.0,4.0,4.0,4.0,4.0,2.0,4.0,4.0,4.0,4.0,4.0,4.0
94.0,0.0,4126.153846153848,4150.769230769232,4135.384615384617,4144.102564102565,4181.0256410256425,4152.8205128205145,4220.000000000002,4164.615384615386,4161.0256410256425,4193.846153846155,4163.076923076925,4156.923076923078,4133.846153846155,4114.871794871797,864.0,2038.0,2050.0,0.0,0.0,4.0,4.0,4.0,4.0,0.0,4.0,4.0,4.0,4.0,2.0,4.0,4.0,4.0,4.0,4.0,4.0
95.0,0.0,4132.307692307694,4149.23076923077,4139.487179487181,4151.794871794873,4185.641025641027,4160.000000000002,4192.8205128205145,4169.743589743592,4167.179487179489,4193.333333333335,4171.282051282053,4162.564102564104,4138.97435897436,4121.0256410256425,829.0,2038.0,2051.0,0.0,0.0,4.0,4.0,4.0,4.0,0.0,4.0,4.0,4.0,4.0,2.0,4.0,4.0,4.0,4.0,4.0,4.0
96.0,0.0,4128.20512820513,4143.076923076925,4146.153846153848,4151.794871794873,4188.20512820513,4162.564102564104,4188.20512820513,4168.71794871795,4168.20512820513,4185.641025641027,4170.256410256412,4159.487179487181,4138.97435897436,4120.000000000002,874.0,2039.0,2049.0,0.0,0.0,4.0,4.0,4.0,4.0,0.0,4.0,4.0,4.0,4.0,2.0,4.0,4.0,4.0,4.0,4.0,4.0
97.0,0.0,4128.20512820513,4146.666666666668,4147.692307692309,4150.769230769232,4182.051282051283,4161.538461538463,4187.692307692309,4168.20512820513,4166.666666666668,4184.615384615386,4169.743589743592,4162.564102564104,4137.94871794872,4120.000000000002,854.0,2040.0,2049.0,0.0,0.0,4.0,4.0,4.0,4.0,0.0,4.0,4.0,4.0,4.0,2.0,4.0,4.0,4.0,4.0,4.0,4.0
98.0,0.0,4130.769230769232,4153.333333333335,4147.179487179489,4154.3589743589755,4183.076923076925,4162.564102564104,4210.256410256412,4172.307692307694,4170.256410256412,4189.743589743592,4174.3589743589755,4165.641025641027,4140.000000000002,4123.589743589745,864.0,2041.0,2050.0,0.0,0.0,4.0,4.0,4.0,4.0,0.0,4.0,4.0,4.0,4.0,2.0,4.0,4.0,4.0,4.0,4.0,4.0
99.0,0.0,4127.179487179489,4148.71794871795,4147.179487179489,4153.846153846155,4185.641025641027,4161.538461538463,4218.97435897436,4172.307692307694,4171.282051282053,4192.8205128205145,4173.333333333335,4161.0256410256425,4141.538461538463,4119.487179487181,829.0,2042.0,2047.0,0.0,0.0,4.0,4.0,4.0,4.0,0.0,4.0,4.0,4.0,4.0,2.0,4.0,4.0,4.0,4.0,4.0,4.0
100.0,0.0,4123.589743589745,4143.076923076925,4145.128205128207,4151.794871794873,4187.179487179489,4159.487179487181,4144.102564102565,4169.23076923077,4168.20512820513,4190.769230769232,4169.23076923077,4160.000000000002,4138.46153846154,4116.923076923078,874.0,2044.0,2046.0,0.0,0.0,4.0,4.0,4.0,4.0,0.0,4.0,4.0,4.0,4.0,2.0,4.0,4.0,4.0,4.0,4.0,4.0
101.0,0.0,4125.641025641027,4142.564102564104,4143.589743589745,4153.846153846155,4185.128205128207,4158.97435897436,4067.1794871794887,4174.3589743589755,4169.743589743592,4192.8205128205145,4171.794871794873,4164.102564102565,4140.512820512822,4122.564102564104,854.0,2045.0,2047.0,0.0,0.0,4.0,4.0,4.0,4.0,0.0,4.0,4.0,4.0,4.0,2.0,4.0,4.0,4.0,4.0,4.0,4.0
102.0,0.0,4124.615384615386,4140.512820512822,4145.641025641027,4154.3589743589755,4183.589743589745,4160.512820512822,4053.846153846155,4184.615384615386,4171.282051282053,4196.410256410258,4175.897435897437,4167.179487179489,4148.20512820513,4124.102564102565,864.0,2046.0,2046.0,0.0,0.0,4.0,4.0,4.0,4.0,0.0,4.0,4.0,4.0,4.0,2.0,4.0,4.0,4.0,4.0,4.0,4.0
103.0,0.0,4124.615384615386,4137.435897435899,4149.23076923077,4153.846153846155,4188.20512820513,4161.0256410256425,4032.3076923076937,4186.153846153848,4170.769230769232,4192.8205128205145,4175.384615384617,4169.743589743592,4145.641025641027,4123.589743589745,829.0,2048.0,2048.0,0.0,0.0,4.0,4.0,4.0,4.0,0.0,4.0,4.0,4.0,4.0,2.0,4.0,4.0,4.0,4.0,4.0,4.0
104.0,0.0,4127.179487179489,4137.94871794872,4149.743589743592,4155.897435897437,4184.102564102565,4160.000000000002,4029.230769230771,4182.564102564104,4175.897435897437,4189.23076923077,4176.410256410258,4169.23076923077,4136.410256410258,4127.692307692309,874.0,2048.0,2048.0,0.0,0.0,4.0,4.0,4.0,4.0,0.0,4.0,4.0,4.0,4.0,2.0,4.0,4.0,4.0,4.0,4.0,4.0
105.0,0.0,4129.743589743592,4142.051282051283,4150.769230769232,4156.923076923078,4182.564102564104,4168.20512820513,4098.46153846154,4184.615384615386,4184.102564102565,4197.94871794872,4182.051282051283,4168.20512820513,4140.512820512822,4128.20512820513,854.0,2049.0,2048.0,0.0,0.0,4.0,4.0,4.0,4.0,0.0,4.0,4.0,4.0,4.0,2.0,4.0,4.0,4.0,4.0,4.0,4.0
106.0,0.0,4127.179487179489,4144.615384615386,4152.307692307694,4154.3589743589755,4186.153846153848,4171.282051282053,4147.179487179489,4187.179487179489,4185.128205128207,4202.051282051283,4186.666666666668,4170.769230769232,4147.179487179489,4125.128205128207,864.0,2050.0,2049.0,0.0,0.0,4.0,4.0,4.0,4.0,0.0,4.0,4.0,4.0,4.0,2.0,4.0,4.0,4.0,4.0,4.0,4.0
107.0,0.0,4121.0256410256425,4142.564102564104,4144.615384615386,4151.794871794873,4183.076923076925,4163.076923076925,4141.538461538463,4185.128205128207,4180.000000000002,4196.410256410258,4182.564102564104,4165.128205128207,4140.000000000002,4122.051282051283,829.0,2050.0,2049.0,0.0,0.0,4.0,4.0,4.0,4.0,0.0,4.0,4.0,4.0,4.0,2.0,4.0,4.0,4.0,4.0,4.0,4.0
108.0,0.0,4121.538461538463,4141.538461538463,4140.000000000002,4151.794871794873,4184.102564102565,4163.589743589745,4118.46153846154,4183.589743589745,4180.000000000002,4198.46153846154,4180.000000000002,4157.435897435899,4134.871794871797,4118.97435897436,874.0,2051.0,2048.0,0.0,0.0,4.0,4.0,4.0,4.0,0.0,4.0,4.0,4.0,4.0,2.0,4.0,4.0,4.0,4.0,4.0,4.0
109.0,0.0,4126.666666666668,4145.128205128207,4144.615384615386,4154.3589743589755,4185.128205128207,4169.743589743592,4056.4102564102577,4186.666666666668,4183.076923076925,4200.512820512822,4185.641025641027,4160.512820512822,4145.128205128207,4118.97435897436,854.0,2051.0,2047.0,0.0,0.0,4.0,4.0,4.0,4.0,0.0,4.0,4.0,4.0,4.0,2.0,4.0,4.0,4.0,4.0,4.0,4.0
110.0,0.0,4135.384615384617,4151.282051282053,4151.282051282053,4157.94871794872,4186.153846153848,4171.794871794873,4005.641025641027,4191.282051282053,4187.179487179489,4199.487179487181,4193.333333333335,4170.769230769232,4155.384615384617,4126.153846153848,864.0,2051.0,2046.0,0.0,0.0,4.0,4.0,4.0,4.0,0.0,4.0,4.0,4.0,4.0,2.0,4.0,4.0,4.0,4.0,4.0,4.0
111.0,0.0,4142.051282051283,4154.871794871797,4154.3589743589755,4160.000000000002,4186.666666666668,4173.333333333335,4038.46153846154,4195.897435897437,4195.384615384617,4199.487179487181,4200.512820512822,4174.3589743589755,4156.923076923078,4134.3589743589755,829.0,2050.0,2045.0,0.0,0.0,4.0,4.0,4.0,4.0,0.0,4.0,4.0,4.0,4.0,2.0,4.0,4.0,4.0,4.0,4.0,4.0
112.0,0.0,4134.871794871797,4147.692307692309,4146.666666666668,4158.97435897436,4184.615384615386,4171.282051282053,4087.1794871794887,4195.897435897437,4197.435897435899,4199.487179487181,4197.94871794872,4168.71794871795,4156.410256410258,4130.256410256412,874.0,2051.0,2044.0,0.0,0.0,4.0,4.0,4.0,4.0,0.0,4.0,4.0,4.0,4.0,2.0,4.0,4.0,4.0,4.0,4.0,4.0
113.0,0.0,4125.128205128207,4136.923076923078,4138.46153846154,4151.282051282053,4188.20512820513,4164.615384615386,4099.487179487181,4188.71794871795,4188.71794871795,4200.000000000002,4188.71794871795,4166.153846153848,4151.794871794873,4121.538461538463,854.0,2049.0,2044.0,0.0,0.0,4.0,4.0,4.0,4.0,0.0,4.0,4.0,4.0,4.0,2.0,4.0,4.0,4.0,4.0,4.0,4.0
114.0,0.0,4128.20512820513,4141.538461538463,4148.71794871795,4152.307692307694,4183.589743589745,4164.102564102565,4120.512820512822,4185.128205128207,4183.076923076925,4201.538461538463,4186.666666666668,4169.23076923077,4147.179487179489,4125.128205128207,864.0,2048.0,2043.0,0.0,0.0,4.0,4.0,4.0,4.0,0.0,4.0,4.0,4.0,4.0,2.0,4.0,4.0,4.0,4.0,4.0,4.0
115.0,0.0,4138.97435897436,4154.3589743589755,4164.615384615386,4164.615384615386,4180.512820512822,4171.282051282053,4143.589743589745,4188.71794871795,4187.179487179489,4198.97435897436,4190.256410256412,4170.769230769232,4151.282051282053,4130.769230769232,829.0,2046.0,2044.0,0.0,0.0,4.0,4.0,4.0,4.0,0.0,4.0,4.0,4.0,4.0,2.0,4.0,4.0,4.0,4.0,4.0,4.0
116.0,0.0,4142.051282051283,4154.3589743589755,4165.128205128207,4164.102564102565,4186.666666666668,4170.769230769232,4132.8205128205145,4187.692307692309,4186.153846153848,4193.846153846155,4185.641025641027,4170.769230769232,4148.71794871795,4128.71794871795,874.0,2045.0,2044.0,0.0,0.0,4.0,4.0,4.0,4.0,0.0,4.0,4.0,4.0,4.0,2.0,4.0,4.0,4.0,4.0,4.0,4.0
117.0,0.0,4137.94871794872,4147.692307692309,4160.000000000002,4154.871794871797,4186.666666666668,4163.589743589745,4123.076923076925,4183.076923076925,4180.000000000002,4194.3589743589755,4180.512820512822,4175.897435897437,4143.589743589745,4128.20512820513,854.0,2045.0,2044.0,0.0,0.0,4.0,4.0,4.0,4.0,0.0,4.0,4.0,4.0,4.0,2.0,4.0,4.0,4.0,4.0,4.0,4.0
118.0,0.0,4138.97435897436,4151.794871794873,4163.589743589745,4157.94871794872,4185.641025641027,4167.179487179489,4146.666666666668,4185.128205128207,4183.589743589745,4198.97435897436,4187.692307692309,4181.538461538463,4148.71794871795,4136.923076923078,864.0,2046.0,2046.0,0.0,0.0,4.0,4.0,4.0,4.0,0.0,4.0,4.0,4.0,4.0,2.0,4.0,4.0,4.0,4.0,4.0,4.0
119.0,0.0,4141.538461538463,4154.3589743589755,4163.076923076925,4161.0256410256425,4183.589743589745,4168.20512820513,4143.076923076925,4185.641025641027,4185.128205128207,4200.000000000002,4188.71794871795,4179.487179487181,4147.692307692309,4138.97435897436,829.0,2044.0,2046.0,0.0,0.0,4.0,4.0,4.0,4.0,0.0,4.0,4.0,4.0,4.0,2.0,4.0,4.0,4.0,4.0,4.0,4.0
120.0,0.0,4137.435897435899,4152.307692307694,4159.487179487181,4158.97435897436,4185.128205128207,4162.564102564104,4109.23076923077,4182.564102564104,4184.102564102565,4200.000000000002,4183.589743589745,4176.923076923078,4143.589743589745,4132.307692307694,874.0,2042.0,2047.0,0.0,0.0,4.0,4.0,4.0,4.0,0.0,4.0,4.0,4.0,4.0,2.0,4.0,4.0,4.0,4.0,4.0,4.0
121.0,0.0,4142.564102564104,4155.897435897437,4167.692307692309,4168.71794871795,4187.179487179489,4169.743589743592,4116.923076923078,4189.23076923077,4190.769230769232,4202.564102564104,4194.871794871797,4186.666666666668,4153.333333333335,4137.94871794872,854.0,2043.0,2047.0,0.0,0.0,4.0,4.0,4.0,4.0,0.0,4.0,4.0,4.0,4.0,2.0,4.0,4.0,4.0,4.0,4.0,4.0
122.0,0.0,4148.20512820513,4155.384615384617,4166.666666666668,4171.794871794873,4182.564102564104,4171.794871794873,4141.538461538463,4190.769230769232,4190.769230769232,4200.512820512822,4200.000000000002,4187.179487179489,4157.435897435899,4141.538461538463,864.0,2044.0,2048.0,0.0,0.0,4.0,4.0,4.0,4.0,0.0,4.0,4.0,4.0,4.0,2.0,4.0,4.0,4.0,4.0,4.0,4.0
123.0,0.0,4141.0256410256425,4150.256410256412,4154.871794871797,4161.0256410256425,4183.076923076925,4164.102564102565,4134.3589743589755,4180.512820512822,4181.0256410256425,4197.94871794872,4185.128205128207,4173.333333333335,4148.20512820513,4128.71794871795,829.0,2043.0,2047.0,0.0,0.0,4.0,4.0,4.0,4.0,0.0,4.0,4.0,4.0,4.0,2.0,4.0,4.0,4.0,4.0,4.0,4.0
124.0,0.0,4144.615384615386,4152.307692307694,4158.97435897436,4163.589743589745,4184.102564102565,4168.71794871795,4140.000000000002,4183.589743589745,4185.641025641027,4199.487179487181,4186.666666666668,4174.871794871797,4151.282051282053,4130.769230769232,874.0,2043.0,2048.0,0.0,0.0,4.0,4.0,4.0,4.0,0.0,4.0,4.0,4.0,4.0,2.0,4.0,4.0,4.0,4.0,4.0,4.0
125.0,0.0,4152.8205128205145,4155.897435897437,4167.179487179489,4172.307692307694,4183.589743589745,4175.897435897437,4171.282051282053,4196.410256410258,4194.871794871797,4200.000000000002,4200.000000000002,4187.179487179489,4157.94871794872,4144.102564102565,854.0,2043.0,2049.0,0.0,0.0,4.0,4.0,4.0,4.0,0.0,4.0,4.0,4.0,4.0,2.0,4.0,4.0,4.0,4.0,4.0,4.0
126.0,0.0,4147.692307692309,4153.846153846155,4167.179487179489,4170.769230769232,4187.179487179489,4174.871794871797,4146.153846153848,4194.3589743589755,4189.23076923077,4197.94871794872,4194.871794871797,4186.666666666668,4155.897435897437,4145.641025641027,864.0,2043.0,2048.0,0.0,0.0,4.0,4.0,4.0,4.0,0.0,4.0,4.0,4.0,4.0,2.0,4.0,4.0,4.0,4.0,4.0,4.0
127.0,0.0,4144.102564102565,4152.8205128205145,4167.179487179489,4167.179487179489,4183.589743589745,4172.8205128205145,4088.2051282051298,4189.23076923077,4183.076923076925,4197.435897435899,4186.666666666668,4181.538461538463,4161.0256410256425,4142.051282051283,829.0,2043.0,2050.0,0.0,0.0,4.0,4.0,4.0,4.0,0.0,4.0,4.0,4.0,4.0,2.0,4.0,4.0,4.0,4.0,4.0,4.0
128.0,0.0,4150.769230769232,4153.846153846155,4168.71794871795,4170.256410256412,4183.589743589745,4175.897435897437,4070.256410256412,4196.410256410258,4186.153846153848,4200.000000000002,4189.743589743592,4185.128205128207,4165.128205128207,4143.076923076925,874.0,2043.0,2048.0,0.0,0.0,4.0,4.0,4.0,4.0,0.0,4.0,4.0,4.0,4.0,2.0,4.0,4.0,4.0,4.0,4.0,4.0
0.0,0.0,4154.871794871797,4153.333333333335,4164.102564102565,4169.23076923077,4185.641025641027,4175.897435897437,4055.384615384617,4202.051282051283,4193.846153846155,4200.512820512822,4194.3589743589755,4187.179487179489,4162.564102564104,4145.641025641027,823.0,2042.0,2049.0,0.0,0.0,4.0,4.0,4.0,4.0,0.0,4.0,4.0,4.0,4.0,2.0,4.0,4.0,4.0,4.0,4.0,4.0
1.0,0.0,4147.692307692309,4154.3589743589755,4161.0256410256425,4167.692307692309,4182.564102564104,4171.794871794873,4007.692307692309,4200.000000000002,4193.846153846155,4199.487179487181,4199.487179487181,4184.615384615386,4165.128205128207,4143.589743589745,852.0,2044.0,2049.0,0.0,0.0,4.0,4.0,4.0,4.0,0.0,4.0,4.0,4.0,4.0,2.0,4.0,4.0,4.0,4.0,4.0,4.0
2.0,0.0,4143.076923076925,4155.897435897437,4161.0256410256425,4169.743589743592,4183.589743589745,4171.794871794873,3994.358974358976,4199.487179487181,4191.794871794873,4200.512820512822,4202.051282051283,4184.615384615386,4168.71794871795,4144.615384615386,842.0,2045.0,2048.0,0.0,0.0,4.0,4.0,4.0,4.0,0.0,4.0,4.0,4.0,4.0,2.0,4.0,4.0,4.0,4.0,4.0,4.0
3.0,0.0,4144.615384615386,4155.384615384617,4162.051282051283,4168.20512820513,4181.538461538463,4170.769230769232,4053.333333333335,4197.94871794872,4193.846153846155,4202.051282051283,4197.94871794872,4189.23076923077,4167.692307692309,4148.20512820513,842.0,2044.0,2046.0,0.0,0.0,4.0,4.0,4.0,4.0,0.0,4.0,4.0,4.0,4.0,2.0,4.0,4.0,4.0,4.0,4.0,4.0
4.0,0.0,4149.23076923077,4156.410256410258,4168.20512820513,4168.20512820513,4181.538461538463,4171.282051282053,4099.487179487181,4195.897435897437,4194.871794871797,4201.538461538463,4200.000000000002,4194.871794871797,4170.256410256412,4149.23076923077,0.0,2045.0,2045.0,0.0,0.0,4.0,4.0,4.0,4.0,0.0,4.0,4.0,4.0,4.0,2.0,4.0,4.0,4.0,4.0,4.0,4.0
5.0,0.0,4148.71794871795,4158.97435897436,4168.71794871795,4170.769230769232,4183.589743589745,4172.307692307694,4091.7948717948734,4204.615384615386,4191.794871794873,4200.512820512822,4201.538461538463,4192.8205128205145,4166.153846153848,4146.666666666668,591.0,2045.0,2045.0,0.0,0.0,4.0,4.0,4.0,4.0,0.0,4.0,4.0,4.0,4.0,2.0,4.0,4.0,4.0,4.0,4.0,4.0
6.0,0.0,4147.692307692309,4162.564102564104,4164.615384615386,4172.307692307694,4184.102564102565,4172.307692307694,4070.256410256412,4214.871794871797,4193.846153846155,4200.512820512822,4198.46153846154,4185.128205128207,4156.923076923078,4147.179487179489,803.0,2045.0,2045.0,0.0,0.0,4.0,4.0,4.0,4.0,0.0,4.0,4.0,4.0,4.0,2.0,4.0,4.0,4.0,4.0,4.0,4.0
7.0,0.0,4154.871794871797,4168.20512820513,4172.8205128205145,4174.3589743589755,4189.743589743592,4176.410256410258,4077.9487179487196,4220.000000000002,4201.0256410256425,4202.051282051283,4201.538461538463,4190.256410256412,4164.102564102565,4155.897435897437,875.0,2045.0,2043.0,0.0,0.0,4.0,4.0,4.0,4.0,0.0,4.0,4.0,4.0,4.0,2.0,4.0,4.0,4.0,4.0,4.0,4.0
8.0,0.0,4156.923076923078,4168.20512820513,4175.897435897437,4175.384615384617,4185.641025641027,4178.46153846154,4116.923076923078,4217.435897435899,4201.538461538463,4203.076923076925,4204.102564102565,4197.435897435899,4174.871794871797,4156.410256410258,882.0,2043.0,2041.0,0.0,0.0,4.0,4.0,4.0,4.0,0.0,4.0,4.0,4.0,4.0,2.0,4.0,4.0,4.0,4.0,4.0,4.0
9.0,0.0,4146.153846153848,4155.384615384617,4163.076923076925,4170.769230769232,4181.0256410256425,4170.769230769232,4141.0256410256425,4205.128205128207,4192.8205128205145,4202.564102564104,4195.897435897437,4189.743589743592,4165.641025641027,4147.692307692309,204.0,2044.0,2041.0,0.0,0.0,4.0,4.0,4.0,4.0,0.0,4.0,4.0,4.0,4.0,2.0,4.0,4.0,4.0,4.0,4.0,4.0
10.0,0.0,4140.000000000002,4148.71794871795,4156.923076923078,4167.179487179489,4184.615384615386,4165.641025641027,4133.846153846155,4201.0256410256425,4188.20512820513,4202.564102564104,4190.769230769232,4183.076923076925,4153.846153846155,4146.153846153848,864.0,2045.0,2040.0,0.0,0.0,4.0,4.0,4.0,4.0,0.0,4.0,4.0,4.0,4.0,2.0,4.0,4.0,4.0,4.0,4.0,4.0
11.0,0.0,4146.666666666668,4154.3589743589755,4162.564102564104,4167.692307692309,4184.615384615386,4172.8205128205145,4139.487179487181,4211.794871794873,4195.384615384617,4202.051282051283,4197.435897435899,4186.153846153848,4155.897435897437,4150.769230769232,829.0,2044.0,2041.0,0.0,0.0,4.0,4.0,4.0,4.0,0.0,4.0,4.0,4.0,4.0,2.0,4.0,4.0,4.0,4.0,4.0,4.0
12.0,0.0,4152.307692307694,4155.897435897437,4166.666666666668,4166.153846153848,4186.153846153848,4178.46153846154,4166.153846153848,4213.333333333335,4202.051282051283,4200.512820512822,4201.0256410256425,4187.179487179489,4160.000000000002,4153.846153846155,896.0,2045.0,2040.0,0.0,0.0,4.0,4.0,4.0,4.0,0.0,4.0,4.0,4.0,4.0,2.0,4.0,4.0,4.0,4.0,4.0,4.0
13.0,0.0,4154.3589743589755,4158.97435897436,4171.794871794873,4170.256410256412,4184.102564102565,4173.333333333335,4173.846153846155,4205.128205128207,4200.000000000002,4206.153846153848,4200.000000000002,4193.846153846155,4162.564102564104,4155.897435897437,881.0,2045.0,2039.0,0.0,0.0,4.0,4.0,4.0,4.0,0.0,4.0,4.0,4.0,4.0,2.0,4.0,4.0,4.0,4.0,4.0,4.0
14.0,0.0,4165.128205128207,4169.23076923077,4181.0256410256425,4182.051282051283,4183.589743589745,4174.871794871797,4176.410256410258,4210.256410256412,4202.564102564104,4207.692307692309,4206.153846153848,4208.71794871795,4173.333333333335,4165.128205128207,864.0,2045.0,2039.0,0.0,0.0,4.0,4.0,4.0,4.0,0.0,4.0,4.0,4.0,4.0,2.0,4.0,4.0,4.0,4.0,4.0,4.0
15.0,0.0,4174.3589743589755,4175.897435897437,4186.666666666668,4187.692307692309,4185.128205128207,4181.538461538463,4150.769230769232,4217.435897435899,4208.20512820513,4204.102564102565,4215.384615384617,4214.3589743589755,4183.589743589745,4173.333333333335,829.0,2046.0,2038.0,0.0,0.0,4.0,4.0,4.0,4.0,0.0,4.0,4.0,4.0,4.0,2.0,4.0,4.0,4.0,4.0,4.0,4.0
16.0,0.0,4164.615384615386,4165.641025641027,4180.512820512822,4177.94871794872,4182.564102564104,4180.000000000002,4091.7948717948734,4210.769230769232,4204.102564102565,4204.615384615386,4211.794871794873,4205.641025641027,4176.923076923078,4167.179487179489,0.0,2045.0,2040.0,0.0,0.0,4.0,4.0,4.0,4.0,0.0,4.0,4.0,4.0,4.0,2.0,4.0,4.0,4.0,4.0,4.0,4.0
17.0,0.0,4147.692307692309,4152.307692307694,4168.71794871795,4166.153846153848,4184.615384615386,4175.897435897437,4096.410256410258,4204.615384615386,4198.97435897436,4206.666666666668,4200.512820512822,4194.3589743589755,4161.0256410256425,4153.333333333335,0.0,2045.0,2041.0,0.0,0.0,4.0,4.0,4.0,4.0,0.0,4.0,4.0,4.0,4.0,2.0,4.0,4.0,4.0,4.0,4.0,4.0
18.0,0.0,4143.076923076925,4153.333333333335,4164.615384615386,4163.589743589745,4183.076923076925,4173.846153846155,4150.256410256412,4203.076923076925,4196.923076923078,4206.153846153848,4196.410256410258,4187.692307692309,4154.3589743589755,4146.153846153848,0.0,2044.0,2039.0,0.0,0.0,4.0,4.0,4.0,4.0,0.0,4.0,4.0,4.0,4.0,2.0,4.0,4.0,4.0,4.0,4.0,4.0
19.0,0.0,4152.307692307694,4164.615384615386,4172.8205128205145,4168.71794871795,4184.102564102565,4175.384615384617,4174.871794871797,4200.512820512822,4195.897435897437,4204.615384615386,4200.000000000002,4191.282051282053,4162.564102564104,4151.794871794873,0.0,2045.0,2041.0,0.0,0.0,4.0,4.0,4.0,4.0,0.0,4.0,4.0,4.0,4.0,2.0,4.0,4.0,4.0,4.0,4.0,4.0
20.0,0.0,4172.307692307694,4181.538461538463,4186.666666666668,4178.97435897436,4187.692307692309,4176.923076923078,4173.846153846155,4203.589743589745,4198.97435897436,4207.179487179489,4205.128205128207,4203.589743589745,4182.564102564104,4171.794871794873,0.0,2045.0,2042.0,0.0,0.0,4.0,4.0,4.0,4.0,0.0,4.0,4.0,4.0,4.0,2.0,4.0,4.0,4.0,4.0,4.0,4.0
21.0,0.0,4198.97435897436,4206.666666666668,4198.97435897436,4193.846153846155,4183.076923076925,4177.435897435899,4143.076923076925,4211.794871794873,4208.71794871795,4212.307692307694,4215.384615384617,4220.000000000002,4210.769230769232,4200.512820512822,0.0,2045.0,2042.0,0.0,0.0,4.0,4.0,4.0,4.0,0.0,4.0,4.0,4.0,4.0,2.0,4.0,4.0,4.0,4.0,4.0,4.0
22.0,0.0,4228.20512820513,4237.435897435899,4215.897435897437,4210.256410256412,4185.641025641027,4182.564102564104,4122.564102564104,4219.487179487181,4220.000000000002,4216.923076923078,4229.23076923077,4240.512820512822,4237.94871794872,4232.8205128205145,0.0,2045.0,2042.0,0.0,0.0,4.0,4.0,4.0,4.0,0.0,4.0,4.0,4.0,4.0,2.0,4.0,4.0,4.0,4.0,4.0,4.0
23.0,0.0,4255.384615384617,4263.589743589745,4231.794871794873,4224.102564102565,4185.128205128207,4183.076923076925,4160.512820512822,4218.46153846154,4221.0256410256425,4215.897435897437,4233.846153846155,4260.000000000002,4255.384615384617,4266.153846153848,0.0,2045.0,2044.0,0.0,0.0,4.0,4.0,4.0,4.0,0.0,4.0,4.0,4.0,4.0,2.0,4.0,4.0,4.0,4.0,4.0,4.0
24.0,0.0,4283.589743589745,4287.692307692309,4243.589743589745,4235.897435897437,4182.051282051283,4179.487179487181,4165.641025641027,4214.871794871797,4214.871794871797,4214.3589743589755,4229.23076923077,4273.846153846155,4271.794871794873,4300.000000000002,0.0,2045.0,2043.0,0.0,0.0,4.0,4.0,4.0,4.0,0.0,4.0,4.0,4.0,4.0,2.0,4.0,4.0,4.0,4.0,4.0,4.0
25.0,0.0,4317.435897435899,4314.3589743589755,4258.97435897436,4250.769230769232,4186.666666666668,4182.564102564104,4132.307692307694,4215.384615384617,4216.923076923078,4215.384615384617,4232.307692307694,4291.794871794873,4295.384615384617,4337.94871794872,0.0,2045.0,2044.0,0.0,0.0,4.0,4.0,4.0,4.0,0.0,4.0,4.0,4.0,4.0,2.0,4.0,4.0,4.0,4.0,4.0,4.0
26.0,0.0,4347.179487179488,4334.3589743589755,4270.769230769232,4264.615384615386,4183.589743589745,4187.179487179489,4164.615384615386,4215.384615384617,4222.051282051283,4214.3589743589755,4240.000000000002,4309.23076923077,4317.435897435899,4369.23076923077,0.0,2045.0,2044.0,0.0,0.0,4.0,4.0,4.0,4.0,0.0,4.0,4.0,4.0,4.0,2.0,4.0,4.0,4.0,4.0,4.0,4.0
27.0,0.0,4367.692307692309,4355.384615384617,4282.564102564104,4276.410256410258,4182.051282051283,4190.256410256412,4207.179487179489,4217.94871794872,4225.641025641027,4216.923076923078,4248.20512820513,4322.564102564104,4332.8205128205145,4390.256410256412,0.0,2046.0,2044.0,0.0,0.0,4.0,4.0,4.0,4.0,0.0,4.0,4.0,4.0,4.0,2.0,4.0,4.0,4.0,4.0,4.0,4.0
28.0,0.0,4376.923076923078,4374.3589743589755,4294.3589743589755,4286.666666666668,4183.076923076925,4192.307692307694,4185.128205128207,4218.97435897436,4231.282051282053,4218.97435897436,4252.307692307694,4330.769230769232,4338.46153846154,4400.000000000002,0.0,2046.0,2043.0,0.0,0.0,4.0,4.0,4.0,4.0,0.0,4.0,4.0,4.0,4.0,2.0,4.0,4.0,4.0,4.0,4.0,4.0
29.0,0.0,4360.000000000002,4354.871794871797,4282.051282051283,4282.051282051283,4184.615384615386,4187.692307692309,4169.23076923077,4209.23076923077,4221.0256410256425,4216.410256410258,4241.0256410256425,4315.384615384617,4322.051282051283,4382.564102564104,0.0,2046.0,2044.0,0.0,0.0,4.0,4.0,4.0,4.0,0.0,4.0,4.0,4.0,4.0,2.0,4.0,4.0,4.0,4.0,4.0,4.0
30.0,0.0,4332.8205128205145,4316.923076923078,4258.97435897436,4263.589743589745,4187.692307692309,4178.46153846154,4188.71794871795,4196.410256410258,4204.102564102565,4214.871794871797,4225.641025641027,4289.743589743592,4297.94871794872,4352.8205128205145,0.0,2046.0,2044.0,0.0,0.0,4.0,4.0,4.0,4.0,0.0,4.0,4.0,4.0,4.0,2.0,4.0,4.0,4.0,4.0,4.0,4.0
31.0,0.0,4322.564102564104,4317.435897435899,4254.3589743589755,4252.8205128205145,4182.564102564104,4178.46153846154,4192.8205128205145,4198.97435897436,4207.179487179489,4215.897435897437,4226.666666666668,4287.179487179489,4289.23076923077,4336.410256410258,0.0,2047.0,2046.0,0.0,0.0,4.0,4.0,4.0,4.0,0.0,4.0,4.0,4.0,4.0,2.0,4.0,4.0,4.0,4.0,4.0,4.0
32.0,0.0,4316.923076923078,4327.692307692309,4254.871794871797,4251.282051282053,4185.641025641027,4188.71794871795,4189.23076923077,4211.794871794873,4217.435897435899,4215.897435897437,4231.794871794873,4292.307692307694,4284.102564102565,4323.589743589745,0.0,2046.0,2045.0,0.0,0.0,4.0,4.0,4.0,4.0,0.0,4.0,4.0,4.0,4.0,2.0,4.0,4.0,4.0,4.0,4.0,4.0
33.0,0.0,4298.97435897436,4296.923076923078,4246.666666666668,4248.20512820513,4190.256410256412,4190.769230769232,4202.051282051283,4217.94871794872,4219.487179487181,4213.846153846155,4233.333333333335,4284.102564102565,4270.256410256412,4305.128205128207,0.0,2046.0,2046.0,0.0,0.0,4.0,4.0,4.0,4.0,0.0,4.0,4.0,4.0,4.0,2.0,4.0,4.0,4.0,4.0,4.0,4.0
34.0,0.0,4273.333333333335,4260.000000000002,4235.384615384617,4236.923076923078,4183.589743589745,4181.538461538463,4210.769230769232,4215.384615384617,4214.871794871797,4213.333333333335,4228.71794871795,4268.20512820513,4251.282051282053,4281.0256410256425,0.0,2045.0,2047.0,0.0,0.0,4.0,4.0,4.0,4.0,0.0,4.0,4.0,4.0,4.0,2.0,4.0,4.0,4.0,4.0,4.0,4.0
35.0,0.0,4253.846153846155,4251.794871794873,4224.615384615386,4217.435897435899,4183.589743589745,4182.051282051283,4204.102564102565,4212.8205128205145,4208.20512820513,4215.897435897437,4220.000000000002,4256.410256410258,4235.897435897437,4258.97435897436,0.0,2046.0,2048.0,0.0,0.0,4.0,4.0,4.0,4.0,0.0,4.0,4.0,4.0,4.0,2.0,4.0,4.0,4.0,4.0,4.0,4.0
36.0,0.0,4242.051282051283,4246.153846153848,4214.3589743589755,4203.076923076925,4183.589743589745,4185.641025641027,4200.000000000002,4217.94871794872,4209.743589743592,4215.384615384617,4220.512820512822,4250.769230769232,4231.282051282053,4243.589743589745,0.0,2048.0,2050.0,0.0,0.0,4.0,4.0,4.0,4.0,0.0,4.0,4.0,4.0,4.0,2.0,4.0,4.0,4.0,4.0,4.0,4.0
37.0,0.0,4229.23076923077,4231.282051282053,4209.23076923077,4203.589743589745,4184.102564102565,4182.051282051283,4198.97435897436,4216.923076923078,4214.871794871797,4213.846153846155,4225.641025641027,4245.128205128207,4224.102564102565,4229.23076923077,0.0,2048.0,2051.0,0.0,0.0,4.0,4.0,4.0,4.0,0.0,4.0,4.0,4.0,4.0,2.0,4.0,4.0,4.0,4.0,4.0,4.0
38.0,0.0,4211.282051282053,4212.8205128205145,4203.589743589745,4204.102564102565,4185.641025641027,4176.410256410258,4196.923076923078,4204.102564102565,4208.20512820513,4215.384615384617,4220.512820512822,4234.3589743589755,4204.615384615386,4208.20512820513,0.0,2049.0,2052.0,0.0,0.0,4.0,4.0,4.0,4.0,0.0,4.0,4.0,4.0,4.0,2.0,4.0,4.0,4.0,4.0,4.0,4.0
39.0,0.0,4198.97435897436,4195.384615384617,4194.871794871797,4193.333333333335,4184.615384615386,4175.897435897437,4215.897435897437,4201.538461538463,4202.051282051283,4212.307692307694,4213.846153846155,4225.128205128207,4187.692307692309,4193.333333333335,0.0,2049.0,2052.0,0.0,0.0,4.0,4.0,4.0,4.0,0.0,4.0,4.0,4.0,4.0,2.0,4.0,4.0,4.0,4.0,4.0,4.0
40.0,0.0,4196.923076923078,4189.23076923077,4194.3589743589755,4187.692307692309,4186.666666666668,4173.333333333335,4225.128205128207,4203.076923076925,4203.589743589745,4203.589743589745,4209.743589743592,4223.589743589745,4185.641025641027,4191.794871794873,0.0,2050.0,2053.0,0.0,0.0,4.0,4.0,4.0,4.0,0.0,4.0,4.0,4.0,4.0,2.0,4.0,4.0,4.0,4.0,4.0,4.0
41.0,0.0,4188.71794871795,4183.076923076925,4190.256410256412,4185.641025641027,4183.589743589745,4166.666666666668,4187.692307692309,4189.743589743592,4191.794871794873,4200.512820512822,4200.512820512822,4214.3589743589755,4182.051282051283,4183.589743589745,0.0,2050.0,2054.0,0.0,0.0,4.0,4.0,4.0,4.0,0.0,4.0,4.0,4.0,4.0,2.0,4.0,4.0,4.0,4.0,4.0,4.0
42.0,0.0,4177.435897435899,4172.307692307694,4180.512820512822,4177.435897435899,4183.589743589745,4169.743589743592,4162.564102564104,4183.589743589745,4182.564102564104,4202.564102564104,4197.435897435899,4204.102564102565,4175.897435897437,4168.20512820513,0.0,2048.0,2053.0,0.0,0.0,4.0,4.0,4.0,4.0,0.0,4.0,4.0,4.0,4.0,2.0,4.0,4.0,4.0,4.0,4.0,4.0
43.0,0.0,4169.743589743592,4164.615384615386,4174.871794871797,4170.769230769232,4185.641025641027,4172.307692307694,4180.512820512822,4195.897435897437,4191.794871794873,4202.564102564104,4202.564102564104,4201.538461538463,4170.769230769232,4159.487179487181,0.0,2048.0,2051.0,0.0,0.0,4.0,4.0,4.0,4.0,0.0,4.0,4.0,4.0,4.0,2.0,4.0,4.0,4.0,4.0,4.0,4.0
44.0,0.0,4155.897435897437,4157.435897435899,4164.615384615386,4164.102564102565,4183.076923076925,4162.564102564104,4184.102564102565,4191.794871794873,4187.179487179489,4201.0256410256425,4191.282051282053,4187.179487179489,4157.94871794872,4148.20512820513,0.0,2048.0,2050.0,0.0,0.0,4.0,4.0,4.0,4.0,0.0,4.0,4.0,4.0,4.0,2.0,4.0,4.0,4.0,4.0,4.0,4.0
45.0,0.0,4138.46153846154,4149.23076923077,4150.256410256412,4153.333333333335,4184.615384615386,4159.487179487181,4160.512820512822,4173.333333333335,4166.666666666668,4198.97435897436,4171.794871794873,4162.564102564104,4142.564102564104,4129.23076923077,0.0,2047.0,2050.0,0.0,0.0,4.0,4.0,4.0,4.0,0.0,4.0,4.0,4.0,4.0,2.0,4.0,4.0,4.0,4.0,4.0,4.0
46.0,0.0,4131.282051282053,4147.179487179489,4143.589743589745,4147.692307692309,4184.102564102565,4164.102564102565,4148.71794871795,4167.179487179489,4158.46153846154,4195.897435897437,4168.71794871795,4157.94871794872,4139.487179487181,4121.0256410256425,0.0,2047.0,2051.0,0.0,0.0,4.0,4.0,4.0,4.0,0.0,4.0,4.0,4.0,4.0,2.0,4.0,4.0,4.0,4.0,4.0,4.0
47.0,0.0,4139.487179487181,4150.256410256412,4150.769230769232,4157.435897435899,4184.102564102565,4164.615384615386,4147.692307692309,4168.71794871795,4165.641025641027,4198.46153846154,4178.46153846154,4175.384615384617,4148.20512820513,4130.769230769232,0.0,2046.0,2050.0,0.0,0.0,4.0,4.0,4.0,4.0,0.0,4.0,4.0,4.0,4.0,2.0,4.0,4.0,4.0,4.0,4.0,4.0
48.0,0.0,4151.794871794873,4157.435897435899,4169.23076923077,4169.743589743592,4186.666666666668,4163.076923076925,4148.71794871795,4172.8205128205145,4179.487179487181,4202.051282051283,4190.256410256412,4190.769230769232,4161.0256410256425,4148.20512820513,0.0,2046.0,2047.0,0.0,0.0,4.0,4.0,4.0,4.0,0.0,4.0,4.0,4.0,4.0,2.0,4.0,4.0,4.0,4.0,4.0,4.0
49.0,0.0,4153.846153846155,4166.153846153848,4175.897435897437,4171.794871794873,4185.641025641027,4164.102564102565,4156.923076923078,4185.641025641027,4190.256410256412,4201.538461538463,4197.435897435899,4195.897435897437,4171.282051282053,4154.871794871797,0.0,2047.0,2046.0,0.0,0.0,4.0,4.0,4.0,4.0,0.0,4.0,4.0,4.0,4.0,2.0,4.0,4.0,4.0,4.0,4.0,4.0
50.0,0.0,4147.179487179489,4163.589743589745,4165.641025641027,4170.256410256412,4188.20512820513,4168.20512820513,4179.487179487181,4195.384615384617,4191.794871794873,4201.0256410256425,4197.94871794872,4190.256410256412,4166.153846153848,4146.153846153848,0.0,2046.0,2044.0,0.0,0.0,4.0,4.0,4.0,4.0,0.0,4.0,4.0,4.0,4.0,2.0,4.0,4.0,4.0,4.0,4.0,4.0
51.0,0.0,4139.487179487181,4149.23076923077,4152.8205128205145,4164.102564102565,4184.615384615386,4170.769230769232,4203.589743589745,4191.282051282053,4188.71794871795,4201.0256410256425,4190.769230769232,4175.384615384617,4153.333333333335,4134.871794871797,0.0,2045.0,2043.0,0.0,0.0,4.0,4.0,4.0,4.0,0.0,4.0,4.0,4.0,4.0,2.0,4.0,4.0,4.0,4.0,4.0,4.0
52.0,0.0,4130.256410256412,4140.000000000002,4146.153846153848,4153.333333333335,4181.0256410256425,4170.256410256412,4197.435897435899,4187.179487179489,4182.051282051283,4201.0256410256425,4179.487179487181,4167.179487179489,4147.692307692309,4132.307692307694,0.0,2046.0,2043.0,0.0,0.0,4.0,4.0,4.0,4.0,0.0,4.0,4.0,4.0,4.0,2.0,4.0,4.0,4.0,4.0,4.0,4.0
53.0,0.0,4123.589743589745,4135.384615384617,4142.564102564104,4143.076923076925,4184.102564102565,4169.743589743592,4189.23076923077,4186.666666666668,4174.871794871797,4200.512820512822,4176.410256410258,4168.20512820513,4143.589743589745,4129.743589743592,0.0,2047.0,2045.0,0.0,0.0,4.0,4.0,4.0,4.0,0.0,4.0,4.0,4.0,4.0,2.0,4.0,4.0,4.0,4.0,4.0,4.0
54.0,0.0,4118.97435897436,4129.743589743592,4140.512820512822,4136.410256410258,4182.564102564104,4166.153846153848,4196.923076923078,4178.46153846154,4169.743589743592,4198.97435897436,4177.94871794872,4164.615384615386,4136.923076923078,4121.0256410256425,0.0,2045.0,2043.0,0.0,0.0,4.0,4.0,4.0,4.0,0.0,4.0,4.0,4.0,4.0,2.0,4.0,4.0,4.0,4.0,4.0,4.0
55.0,0.0,4118.97435897436,4131.794871794873,4139.487179487181,4139.487179487181,4184.102564102565,4163.076923076925,4160.000000000002,4170.256410256412,4169.743589743592,4198.97435897436,4173.846153846155,4161.0256410256425,4134.3589743589755,4118.97435897436,0.0,2045.0,2043.0,0.0,0.0,4.0,4.0,4.0,4.0,0.0,4.0,4.0,4.0,4.0,2.0,4.0,4.0,4.0,4.0,4.0,4.0
56.0,0.0,4127.692307692309,4140.512820512822,4143.589743589745,4150.256410256412,4186.153846153848,4167.179487179489,4107.692307692309,4179.487179487181,4175.384615384617,4201.0256410256425,4176.410256410258,4167.179487179489,4143.076923076925,4130.769230769232,0.0,2042.0,2039.0,0.0,0.0,4.0,4.0,4.0,4.0,0.0,4.0,4.0,4.0,4.0,2.0,4.0,4.0,4.0,4.0,4.0,4.0
57.0,0.0,4133.846153846155,4145.641025641027,4152.8205128205145,4156.410256410258,4186.153846153848,4174.871794871797,4147.179487179489,4191.794871794873,4184.102564102565,4201.538461538463,4186.666666666668,4171.794871794873,4153.333333333335,4136.410256410258,0.0,2044.0,2040.0,0.0,0.0,4.0,4.0,4.0,4.0,0.0,4.0,4.0,4.0,4.0,2.0,4.0,4.0,4.0,4.0,4.0,4.0
58.0,0.0,4131.794871794873,4140.512820512822,4158.46153846154,4152.8205128205145,4185.128205128207,4172.307692307694,4217.94871794872,4189.743589743592,4186.666666666668,4201.0256410256425,4188.20512820513,4170.256410256412,4149.23076923077,4129.23076923077,0.0,2040.0,2040.0,0.0,0.0,4.0,4.0,4.0,4.0,0.0,4.0,4.0,4.0,4.0,2.0,4.0,4.0,4.0,4.0,4.0,4.0
59.0,0.0,4130.256410256412,4135.384615384617,4154.871794871797,4150.769230769232,4180.512820512822,4165.641025641027,4208.71794871795,4183.589743589745,4182.051282051283,4201.0256410256425,4182.051282051283,4170.769230769232,4143.589743589745,4126.666666666668,0.0,2041.0,2039.0,0.0,0.0,4.0,4.0,4.0,4.0,0.0,4.0,4.0,4.0,4.0,2.0,4.0,4.0,4.0,4.0,4.0,4.0
60.0,0.0,4138.97435897436,4143.589743589745,4156.923076923078,4155.897435897437,4183.589743589745,4169.743589743592,4185.128205128207,4184.615384615386,4184.102564102565,4201.538461538463,4184.615384615386,4180.512820512822,4151.794871794873,4138.97435897436,0.0,2039.0,2039.0,0.0,0.0,4.0,4.0,4.0,4.0,0.0,4.0,4.0,4.0,4.0,2.0,4.0,4.0,4.0,4.0,4.0,4.0
61.0,0.0,4149.743589743592,4154.871794871797,4167.692307692309,4160.000000000002,4183.589743589745,4172.8205128205145,4185.641025641027,4187.179487179489,4188.71794871795,4202.051282051283,4188.20512820513,4187.692307692309,4157.94871794872,4150.769230769232,0.0,2037.0,2039.0,0.0,0.0,4.0,4.0,4.0,4.0,0.0,4.0,4.0,4.0,4.0,2.0,4.0,4.0,4.0,4.0,4.0,4.0
62.0,0.0,4148.20512820513,4152.8205128205145,4166.153846153848,4157.435897435899,4180.512820512822,4166.666666666668,4173.846153846155,4184.102564102565,4182.051282051283,4200.000000000002,4180.512820512822,4184.615384615386,4151.282051282053,4149.743589743592,0.0,2038.0,2039.0,0.0,0.0,4.0,4.0,4.0,4.0,0.0,4.0,4.0,4.0,4.0,2.0,4.0,4.0,4.0,4.0,4.0,4.0
63.0,0.0,4141.0256410256425,4144.102564102565,4158.46153846154,4154.871794871797,4184.615384615386,4168.71794871795,4180.000000000002,4182.051282051283,4174.871794871797,4199.487179487181,4175.384615384617,4182.564102564104,4149.23076923077,4145.128205128207,0.0,2038.0,2040.0,0.0,0.0,4.0,4.0,4.0,4.0,0.0,4.0,4.0,4.0,4.0,2.0,4.0,4.0,4.0,4.0,4.0,4.0
64.0,0.0,4138.46153846154,4139.487179487181,4157.435897435899,4155.384615384617,4182.564102564104,4170.769230769232,4190.256410256412,4184.615384615386,4176.923076923078,4200.512820512822,4176.923076923078,4184.102564102565,4146.666666666668,4140.512820512822,823.0,2037.0,2042.0,0.0,0.0,4.0,4.0,4.0,4.0,0.0,4.0,4.0,4.0,4.0,2.0,4.0,4.0,4.0,4.0,4.0,4.0
65.0,0.0,4138.46153846154,4137.435897435899,4160.512820512822,4154.871794871797,4182.564102564104,4167.179487179489,4183.076923076925,4180.512820512822,4176.923076923078,4199.487179487181,4176.410256410258,4180.000000000002,4137.94871794872,4138.97435897436,852.0,2037.0,2042.0,0.0,0.0,4.0,4.0,4.0,4.0,0.0,4.0,4.0,4.0,4.0,2.0,4.0,4.0,4.0,4.0,4.0,4.0
66.0,0.0,4137.435897435899,4141.0256410256425,4164.102564102565,4154.3589743589755,4187.692307692309,4170.256410256412,4181.0256410256425,4171.794871794873,4170.769230769232,4198.46153846154,4170.769230769232,4178.97435897436,4140.512820512822,4138.97435897436,841.0,2038.0,2043.0,0.0,0.0,4.0,4.0,4.0,4.0,0.0,4.0,4.0,4.0,4.0,2.0,4.0,4.0,4.0,4.0,4.0,4.0
67.0,0.0,4136.410256410258,4147.179487179489,4161.0256410256425,4154.871794871797,4185.641025641027,4173.333333333335,4199.487179487181,4168.71794871795,4167.692307692309,4198.46153846154,4168.71794871795,4181.0256410256425,4146.153846153848,4139.487179487181,842.0,2039.0,2044.0,0.0,0.0,4.0,4.0,4.0,4.0,0.0,4.0,4.0,4.0,4.0,2.0,4.0,4.0,4.0,4.0,4.0,4.0
68.0,0.0,4136.410256410258,4151.282051282053,4159.487179487181,4155.897435897437,4184.615384615386,4171.794871794873,4216.923076923078,4165.641025641027,4170.769230769232,4196.923076923078,4171.794871794873,4177.94871794872,4143.589743589745,4142.564102564104,0.0,2039.0,2042.0,0.0,0.0,4.0,4.0,4.0,4.0,0.0,4.0,4.0,4.0,4.0,2.0,4.0,4.0,4.0,4.0,4.0,4.0
69.0,0.0,4132.8205128205145,4147.692307692309,4159.487179487181,4154.871794871797,4181.538461538463,4166.666666666668,4200.000000000002,4157.94871794872,4167.692307692309,4195.897435897437,4168.71794871795,4174.3589743589755,4136.923076923078,4139.487179487181,594.0,2040.0,2045.0,0.0,0.0,4.0,4.0,4.0,4.0,0.0,4.0,4.0,4.0,4.0,2.0,4.0,4.0,4.0,4.0,4.0,4.0
70.0,0.0,4133.846153846155,4142.564102564104,4161.0256410256425,4153.846153846155,4184.102564102565,4169.23076923077,4185.641025641027,4162.051282051283,4166.666666666668,4198.97435897436,4168.71794871795,4178.97435897436,4138.46153846154,4135.384615384617,803.0,2041.0,2047.0,0.0,0.0,4.0,4.0,4.0,4.0,0.0,4.0,4.0,4.0,4.0,2.0,4.0,4.0,4.0,4.0,4.0,4.0
71.0,0.0,4139.487179487181,4149.23076923077,4167.179487179489,4157.94871794872,4187.692307692309,4176.923076923078,4211.794871794873,4178.97435897436,4179.487179487181,4200.512820512822,4182.051282051283,4186.153846153848,4150.769230769232,4144.102564102565,862.0,2042.0,2047.0,0.0,0.0,4.0,4.0,4.0,4.0,0.0,4.0,4.0,4.0,4.0,2.0,4.0,4.0,4.0,4.0,4.0,4.0
72.0,0.0,4138.46153846154,4151.282051282053,4168.20512820513,4160.000000000002,4181.0256410256425,4178.46153846154,4224.102564102565,4186.666666666668,4187.692307692309,4200.000000000002,4186.666666666668,4185.128205128207,4155.384615384617,4147.179487179489,882.0,2041.0,2049.0,0.0,0.0,4.0,4.0,4.0,4.0,0.0,4.0,4.0,4.0,4.0,2.0,4.0,4.0,4.0,4.0,4.0,4.0
73.0,0.0,4136.923076923078,4146.666666666668,4163.589743589745,4158.97435897436,4182.564102564104,4176.923076923078,4189.23076923077,4186.153846153848,4185.128205128207,4200.000000000002,4180.000000000002,4182.051282051283,4148.20512820513,4138.97435897436,204.0,2042.0,2049.0,0.0,0.0,4.0,4.0,4.0,4.0,0.0,4.0,4.0,4.0,4.0,2.0,4.0,4.0,4.0,4.0,4.0,4.0
74.0,0.0,4140.512820512822,4150.256410256412,4161.538461538463,4164.102564102565,4187.179487179489,4174.871794871797,4182.051282051283,4184.102564102565,4183.076923076925,4200.512820512822,4178.46153846154,4181.538461538463,4141.538461538463,4142.564102564104,864.0,2042.0,2050.0,0.0,0.0,4.0,4.0,4.0,4.0,0.0,4.0,4.0,4.0,4.0,2.0,4.0,4.0,4.0,4.0,4.0,4.0
75.0,0.0,4140.512820512822,4152.307692307694,4166.666666666668,4169.23076923077,4187.179487179489,4175.384615384617,4214.871794871797,4176.410256410258,4180.512820512822,4198.46153846154,4179.487179487181,4182.564102564104,4143.076923076925,4150.256410256412,825.0,2043.0,2050.0,0.0,0.0,4.0,4.0,4.0,4.0,0.0,4.0,4.0,4.0,4.0,2.0,4.0,4.0,4.0,4.0,4.0,4.0
76.0,0.0,4140.000000000002,4148.20512820513,4170.769230769232,4163.076923076925,4184.102564102565,4175.897435897437,4196.923076923078,4174.871794871797,4176.410256410258,4197.435897435899,4178.46153846154,4185.641025641027,4148.71794871795,4150.769230769232,882.0,2045.0,2050.0,0.0,0.0,4.0,4.0,4.0,4.0,0.0,4.0,4.0,4.0,4.0,2.0,4.0,4.0,4.0,4.0,4.0,4.0
77.0,0.0,4143.589743589745,4148.20512820513,4166.666666666668,4156.923076923078,4182.564102564104,4176.923076923078,4152.8205128205145,4177.94871794872,4176.923076923078,4198.97435897436,4179.487179487181,4187.179487179489,4151.282051282053,4149.743589743592,863.0,2044.0,2049.0,0.0,0.0,4.0,4.0,4.0,4.0,0.0,4.0,4.0,4.0,4.0,2.0,4.0,4.0,4.0,4.0,4.0,4.0
78.0,0.0,4143.589743589745,4148.20512820513,4160.000000000002,4157.94871794872,4188.20512820513,4177.94871794872,4157.435897435899,4173.846153846155,4181.538461538463,4198.97435897436,4182.051282051283,4185.641025641027,4147.692307692309,4151.282051282053,864.0,2045.0,2050.0,0.0,0.0,4.0,4.0,4.0,4.0,0.0,4.0,4.0,4.0,4.0,2.0,4.0,4.0,4.0,4.0,4.0,4.0
79.0,0.0,4142.564102564104,4145.641025641027,4158.46153846154,4161.0256410256425,4186.666666666668,4174.3589743589755,4183.076923076925,4168.20512820513,4183.076923076925,4198.46153846154,4182.051282051283,4183.589743589745,4147.179487179489,4152.307692307694,825.0,2044.0,2050.0,0.0,0.0,4.0,4.0,4.0,4.0,0.0,4.0,4.0,4.0,4.0,2.0,4.0,4.0,4.0,4.0,4.0,4.0
80.0,0.0,4144.102564102565,4149.743589743592,4165.641025641027,4166.153846153848,4184.102564102565,4172.8205128205145,4180.512820512822,4176.923076923078,4184.102564102565,4199.487179487181,4184.102564102565,4188.71794871795,4155.384615384617,4155.897435897437,882.0,2044.0,2048.0,0.0,0.0,4.0,4.0,4.0,4.0,0.0,4.0,4.0,4.0,4.0,2.0,4.0,4.0,4.0,4.0,4.0,4.0
81.0,0.0,4152.8205128205145,4154.871794871797,4176.923076923078,4169.743589743592,4186.153846153848,4177.435897435899,4183.076923076925,4188.71794871795,4192.8205128205145,4201.538461538463,4192.8205128205145,4197.94871794872,4159.487179487181,4165.128205128207,863.0,2045.0,2048.0,0.0,0.0,4.0,4.0,4.0,4.0,0.0,4.0,4.0,4.0,4.0,2.0,4.0,4.0,4.0,4.0,4.0,4.0
82.0,0.0,4158.97435897436,4156.410256410258,4181.538461538463,4172.8205128205145,4184.102564102565,4179.487179487181,4210.256410256412,4189.23076923077,4196.923076923078,4200.512820512822,4197.435897435899,4202.564102564104,4156.410256410258,4169.23076923077,864.0,2045.0,2047.0,0.0,0.0,4.0,4.0,4.0,4.0,0.0,4.0,4.0,4.0,4.0,2.0,4.0,4.0,4.0,4.0,4.0,4.0
83.0,0.0,4152.307692307694,4151.282051282053,4175.384615384617,4167.692307692309,4186.666666666668,4176.410256410258,4222.051282051283,4186.666666666668,4190.769230769232,4198.46153846154,4191.282051282053,4195.897435897437,4153.333333333335,4163.076923076925,825.0,2045.0,2047.0,0.0,0.0,4.0,4.0,4.0,4.0,0.0,4.0,4.0,4.0,4.0,2.0,4.0,4.0,4.0,4.0,4.0,4.0
84.0,0.0,4145.641025641027,4144.102564102565,4167.179487179489,4155.897435897437,4185.641025641027,4175.384615384617,4215.897435897437,4187.179487179489,4186.153846153848,4199.487179487181,4184.102564102565,4191.794871794873,4152.307692307694,4158.46153846154,882.0,2044.0,2047.0,0.0,0.0,4.0,4.0,4.0,4.0,0.0,4.0,4.0,4.0,4.0,2.0,4.0,4.0,4.0,4.0,4.0,4.0
85.0,0.0,4148.20512820513,4149.23076923077,4164.615384615386,4159.487179487181,4184.102564102565,4177.94871794872,4214.3589743589755,4188.71794871795,4188.71794871795,4198.46153846154,4187.692307692309,4192.8205128205145,4152.8205128205145,4160.512820512822,863.0,2044.0,2045.0,0.0,0.0,4.0,4.0,4.0,4.0,0.0,4.0,4.0,4.0,4.0,2.0,4.0,4.0,4.0,4.0,4.0,4.0
86.0,0.0,4151.282051282053,4156.923076923078,4169.743589743592,4172.307692307694,4187.179487179489,4179.487179487181,4221.0256410256425,4185.641025641027,4186.666666666668,4198.46153846154,4185.641025641027,4189.23076923077,4148.20512820513,4160.000000000002,864.0,2045.0,2046.0,0.0,0.0,4.0,4.0,4.0,4.0,0.0,4.0,4.0,4.0,4.0,2.0,4.0,4.0,4.0,4.0,4.0,4.0
87.0,0.0,4149.23076923077,4155.384615384617,4173.333333333335,4172.8205128205145,4183.076923076925,4183.589743589745,4228.71794871795,4183.076923076925,4183.076923076925,4197.94871794872,4179.487179487181,4189.743589743592,4143.589743589745,4153.846153846155,825.0,2044.0,2045.0,0.0,0.0,4.0,4.0,4.0,4.0,0.0,4.0,4.0,4.0,4.0,2.0,4.0,4.0,4.0,4.0,4.0,4.0
88.0,0.0,4154.871794871797,4157.435897435899,4174.871794871797,4171.282051282053,4184.102564102565,4190.256410256412,4223.076923076925,4185.641025641027,4186.666666666668,4197.94871794872,4182.564102564104,4198.46153846154,4148.71794871795,4154.871794871797,882.0,2045.0,2044.0,0.0,0.0,4.0,4.0,4.0,4.0,0.0,4.0,4.0,4.0,4.0,2.0,4.0,4.0,4.0,4.0,4.0,4.0
89.0,0.0,4162.564102564104,4166.666666666668,4178.97435897436,4176.923076923078,4184.615384615386,4187.179487179489,4208.71794871795,4186.153846153848,4185.641025641027,4201.0256410256425,4186.666666666668,4202.051282051283,4154.3589743589755,4163.076923076925,863.0,2045.0,2044.0,0.0,0.0,4.0,4.0,4.0,4.0,0.0,4.0,4.0,4.0,4.0,2.0,4.0,4.0,4.0,4.0,4.0,4.0
90.0,0.0,4162.564102564104,4166.153846153848,4179.487179487181,4176.410256410258,4181.538461538463,4182.564102564104,4212.307692307694,4186.153846153848,4182.564102564104,4198.97435897436,4182.564102564104,4194.871794871797,4151.282051282053,4163.076923076925,864.0,2045.0,2043.0,0.0,0.0,4.0,4.0,4.0,4.0,0.0,4.0,4.0,4.0,4.0,2.0,4.0,4.0,4.0,4.0,4.0,4.0
91.0,0.0,4157.435897435899,4155.384615384617,4172.307692307694,4170.769230769232,4185.128205128207,4183.076923076925,4221.538461538463,4188.20512820513,4183.589743589745,4193.846153846155,4176.410256410258,4187.179487179489,4142.564102564104,4153.846153846155,825.0,2045.0,2045.0,0.0,0.0,4.0,4.0,4.0,4.0,0.0,4.0,4.0,4.0,4.0,2.0,4.0,4.0,4.0,4.0,4.0,4.0
92.0,0.0,4149.743589743592,4148.71794871795,4165.128205128207,4166.153846153848,4184.615384615386,4183.589743589745,4214.3589743589755,4188.20512820513,4183.076923076925,4196.923076923078,4177.94871794872,4181.538461538463,4136.410256410258,4147.179487179489,882.0,2046.0,2044.0,0.0,0.0,4.0,4.0,4.0,4.0,0.0,4.0,4.0,4.0,4.0,2.0,4.0,4.0,4.0,4.0,4.0,4.0
93.0,0.0,4152.8205128205145,4153.846153846155,4169.743589743592,4168.20512820513,4185.641025641027,4188.20512820513,4234.871794871797,4193.333333333335,4189.743589743592,4203.076923076925,4186.153846153848,4187.692307692309,4144.102564102565,4157.435897435899,863.0,2046.0,2045.0,0.0,0.0,4.0,4.0,4.0,4.0,0.0,4.0,4.0,4.0,4.0,2.0,4.0,4.0,4.0,4.0,4.0,4.0
94.0,0.0,4165.128205128207,4164.615384615386,4179.487179487181,4178.46153846154,4184.615384615386,4187.692307692309,4272.8205128205145,4195.897435897437,4201.538461538463,4201.0256410256425,4188.20512820513,4201.0256410256425,4161.0256410256425,4174.871794871797,864.0,2046.0,2046.0,0.0,0.0,4.0,4.0,4.0,4.0,0.0,4.0,4.0,4.0,4.0,2.0,4.0,4.0,4.0,4.0,4.0,4.0
95.0,0.0,4169.743589743592,4168.71794871795,4181.538461538463,4183.076923076925,4183.076923076925,4181.538461538463,4273.333333333335,4187.692307692309,4196.410256410258,4196.410256410258,4182.051282051283,4203.589743589745,4168.20512820513,4178.97435897436,825.0,2046.0,2046.0,0.0,0.0,4.0,4.0,4.0,4.0,0.0,4.0,4.0,4.0,4.0,2.0,4.0,4.0,4.0,4.0,4.0,4.0
96.0,0.0,4169.743589743592,4168.71794871795,4185.128205128207,4183.076923076925,4189.23076923077,4183.589743589745,4273.333333333335,4181.538461538463,4186.666666666668,4199.487179487181,4183.076923076925,4203.076923076925,4166.666666666668,4175.384615384617,882.0,2047.0,2047.0,0.0,0.0,4.0,4.0,4.0,4.0,0.0,4.0,4.0,4.0,4.0,2.0,4.0,4.0,4.0,4.0,4.0,4.0
97.0,0.0,4169.743589743592,4168.71794871795,4183.589743589745,4182.564102564104,4186.153846153848,4183.589743589745,4304.102564102565,4186.153846153848,4189.23076923077,4200.512820512822,4184.102564102565,4204.615384615386,4161.538461538463,4171.794871794873,863.0,2047.0,2048.0,0.0,0.0,4.0,4.0,4.0,4.0,0.0,4.0,4.0,4.0,4.0,2.0,4.0,4.0,4.0,4.0,4.0,4.0
98.0,0.0,4162.564102564104,4162.051282051283,4172.8205128205145,4175.384615384617,4182.051282051283,4177.435897435899,4310.769230769232,4186.153846153848,4189.743589743592,4191.794871794873,4173.846153846155,4198.46153846154,4154.3589743589755,4164.102564102565,864.0,2047.0,2048.0,0.0,0.0,4.0,4.0,4.0,4.0,0.0,4.0,4.0,4.0,4.0,2.0,4.0,4.0,4.0,4.0,4.0,4.0
99.0,0.0,4151.794871794873,4152.8205128205145,4167.179487179489,4168.20512820513,4183.589743589745,4177.435897435899,4278.46153846154,4181.538461538463,4182.564102564104,4189.23076923077,4170.769230769232,4191.794871794873,4155.897435897437,4161.538461538463,825.0,2047.0,2047.0,0.0,0.0,4.0,4.0,4.0,4.0,0.0,4.0,4.0,4.0,4.0,2.0,4.0,4.0,4.0,4.0,4.0,4.0
100.0,0.0,4155.384615384617,4153.846153846155,4170.256410256412,4172.8205128205145,4184.102564102565,4177.94871794872,4267.179487179489,4181.538461538463,4182.564102564104,4197.94871794872,4180.000000000002,4195.897435897437,4164.102564102565,4168.20512820513,882.0,2048.0,2044.0,0.0,0.0,4.0,4.0,4.0,4.0,0.0,4.0,4.0,4.0,4.0,2.0,4.0,4.0,4.0,4.0,4.0,4.0
101.0,0.0,4169.23076923077,4166.153846153848,4178.97435897436,4181.538461538463,4186.153846153848,4180.512820512822,4289.23076923077,4185.641025641027,4193.846153846155,4203.076923076925,4187.692307692309,4207.692307692309,4171.282051282053,4176.410256410258,863.0,2048.0,2045.0,0.0,0.0,4.0,4.0,4.0,4.0,0.0,4.0,4.0,4.0,4.0,2.0,4.0,4.0,4.0,4.0,4.0,4.0
102.0,0.0,4175.897435897437,4173.846153846155,4189.23076923077,4187.179487179489,4181.538461538463,4185.128205128207,4306.666666666668,4193.846153846155,4202.564102564104,4201.0256410256425,4191.794871794873,4217.94871794872,4177.435897435899,4183.589743589745,864.0,2048.0,2045.0,0.0,0.0,4.0,4.0,4.0,4.0,0.0,4.0,4.0,4.0,4.0,2.0,4.0,4.0,4.0,4.0,4.0,4.0
103.0,0.0,4170.256410256412,4173.846153846155,4191.794871794873,4188.71794871795,4182.564102564104,4183.589743589745,4326.666666666668,4194.871794871797,4199.487179487181,4201.538461538463,4193.333333333335,4214.3589743589755,4176.410256410258,4181.0256410256425,825.0,2048.0,2044.0,0.0,0.0,4.0,4.0,4.0,4.0,0.0,4.0,4.0,4.0,4.0,2.0,4.0,4.0,4.0,4.0,4.0,4.0
104.0,0.0,4164.102564102565,4171.794871794873,4184.615384615386,4186.153846153848,4188.71794871795,4180.512820512822,4350.769230769232,4186.666666666668,4193.846153846155,4200.512820512822,4186.666666666668,4205.641025641027,4169.743589743592,4173.333333333335,882.0,2048.0,2044.0,0.0,0.0,4.0,4.0,4.0,4.0,0.0,4.0,4.0,4.0,4.0,2.0,4.0,4.0,4.0,4.0,4.0,4.0
105.0,0.0,4164.615384615386,4171.282051282053,4177.435897435899,4184.102564102565,4185.128205128207,4178.97435897436,4332.307692307694,4185.641025641027,4191.282051282053,4199.487179487181,4182.051282051283,4204.615384615386,4168.20512820513,4172.307692307694,863.0,2048.0,2044.0,0.0,0.0,4.0,4.0,4.0,4.0,0.0,4.0,4.0,4.0,4.0,2.0,4.0,4.0,4.0,4.0,4.0,4.0
106.0,0.0,4167.179487179489,4174.871794871797,4181.0256410256425,4184.102564102565,4182.564102564104,4182.051282051283,4288.20512820513,4191.794871794873,4194.3589743589755,4201.0256410256425,4187.179487179489,4208.71794871795,4170.256410256412,4176.923076923078,864.0,2047.0,2046.0,0.0,0.0,4.0,4.0,4.0,4.0,0.0,4.0,4.0,4.0,4.0,2.0,4.0,4.0,4.0,4.0,4.0,4.0
107.0,0.0,4169.23076923077,4177.94871794872,4190.769230769232,4189.23076923077,4181.538461538463,4184.615384615386,4271.794871794873,4191.282051282053,4199.487179487181,4199.487179487181,4188.71794871795,4210.769230769232,4172.307692307694,4178.97435897436,825.0,2046.0,2046.0,0.0,0.0,4.0,4.0,4.0,4.0,0.0,4.0,4.0,4.0,4.0,2.0,4.0,4.0,4.0,4.0,4.0,4.0
108.0,0.0,4169.743589743592,4181.0256410256425,4191.794871794873,4195.384615384617,4183.076923076925,4183.589743589745,4264.102564102565,4185.128205128207,4194.3589743589755,4198.46153846154,4182.564102564104,4213.333333333335,4176.923076923078,4181.538461538463,882.0,2046.0,2047.0,0.0,0.0,4.0,4.0,4.0,4.0,0.0,4.0,4.0,4.0,4.0,2.0,4.0,4.0,4.0,4.0,4.0,4.0
109.0,0.0,4182.051282051283,4191.794871794873,4194.871794871797,4198.97435897436,4185.128205128207,4185.641025641027,4247.692307692309,4188.71794871795,4190.256410256412,4200.512820512822,4187.692307692309,4220.000000000002,4183.589743589745,4192.8205128205145,863.0,2046.0,2048.0,0.0,0.0,4.0,4.0,4.0,4.0,0.0,4.0,4.0,4.0,4.0,2.0,4.0,4.0,4.0,4.0,4.0,4.0
110.0,0.0,4198.46153846154,4209.743589743592,4205.128205128207,4206.153846153848,4184.102564102565,4187.179487179489,4262.564102564104,4192.8205128205145,4197.435897435899,4202.051282051283,4196.410256410258,4228.20512820513,4194.871794871797,4207.692307692309,864.0,2044.0,2048.0,0.0,0.0,4.0,4.0,4.0,4.0,0.0,4.0,4.0,4.0,4.0,2.0,4.0,4.0,4.0,4.0,4.0,4.0
111.0,0.0,4211.282051282053,4224.615384615386,4210.256410256412,4213.333333333335,4184.615384615386,4185.128205128207,4296.923076923078,4184.102564102565,4195.897435897437,4201.538461538463,4191.794871794873,4232.8205128205145,4209.23076923077,4224.102564102565,825.0,2045.0,2046.0,0.0,0.0,4.0,4.0,4.0,4.0,0.0,4.0,4.0,4.0,4.0,2.0,4.0,4.0,4.0,4.0,4.0,4.0
112.0,0.0,4227.179487179489,4237.94871794872,4211.282051282053,4212.8205128205145,4182.564102564104,4178.97435897436,4293.333333333335,4174.3589743589755,4181.538461538463,4200.512820512822,4178.46153846154,4237.435897435899,4216.410256410258,4244.102564102565,882.0,2045.0,2046.0,0.0,0.0,4.0,4.0,4.0,4.0,0.0,4.0,4.0,4.0,4.0,2.0,4.0,4.0,4.0,4.0,4.0,4.0
113.0,0.0,4255.384615384617,4266.666666666668,4228.20512820513,4222.051282051283,4183.589743589745,4178.46153846154,4287.692307692309,4180.512820512822,4181.0256410256425,4199.487179487181,4180.512820512822,4252.8205128205145,4232.8205128205145,4276.923076923078,863.0,2044.0,2046.0,0.0,0.0,4.0,4.0,4.0,4.0,0.0,4.0,4.0,4.0,4.0,2.0,4.0,4.0,4.0,4.0,4.0,4.0
114.0,0.0,4294.871794871797,4299.487179487181,4258.46153846154,4247.692307692309,4186.153846153848,4181.0256410256425,4287.179487179489,4193.846153846155,4191.282051282053,4200.000000000002,4196.410256410258,4280.000000000002,4262.564102564104,4322.051282051283,864.0,2043.0,2045.0,0.0,0.0,4.0,4.0,4.0,4.0,0.0,4.0,4.0,4.0,4.0,2.0,4.0,4.0,4.0,4.0,4.0,4.0
115.0,0.0,4330.769230769232,4325.641025641027,4271.794871794873,4265.641025641027,4180.000000000002,4175.384615384617,4249.23076923077,4191.794871794873,4190.256410256412,4199.487179487181,4199.487179487181,4294.871794871797,4281.538461538463,4355.384615384617,825.0,2045.0,2044.0,0.0,0.0,4.0,4.0,4.0,4.0,0.0,4.0,4.0,4.0,4.0,2.0,4.0,4.0,4.0,4.0,4.0,4.0
116.0,0.0,4354.871794871797,4353.846153846155,4273.846153846155,4271.794871794873,4182.564102564104,4174.871794871797,4217.94871794872,4183.589743589745,4186.666666666668,4197.435897435899,4193.333333333335,4299.487179487181,4295.384615384617,4377.435897435899,882.0,2044.0,2043.0,0.0,0.0,4.0,4.0,4.0,4.0,0.0,4.0,4.0,4.0,4.0,2.0,4.0,4.0,4.0,4.0,4.0,4.0
117.0,0.0,4366.153846153848,4370.256410256412,4280.512820512822,4279.487179487181,4185.641025641027,4177.94871794872,4229.743589743592,4184.615384615386,4185.128205128207,4197.94871794872,4197.435897435899,4308.71794871795,4310.769230769232,4397.435897435899,863.0,2043.0,2043.0,0.0,0.0,4.0,4.0,4.0,4.0,0.0,4.0,4.0,4.0,4.0,2.0,4.0,4.0,4.0,4.0,4.0,4.0
118.0,0.0,4364.615384615386,4361.0256410256425,4283.589743589745,4281.0256410256425,4183.076923076925,4182.051282051283,4238.97435897436,4186.666666666668,4186.153846153848,4200.512820512822,4202.051282051283,4314.3589743589755,4312.307692307694,4401.0256410256425,864.0,2044.0,2042.0,0.0,0.0,4.0,4.0,4.0,4.0,0.0,4.0,4.0,4.0,4.0,2.0,4.0,4.0,4.0,4.0,4.0,4.0
119.0,0.0,4352.8205128205145,4348.71794871795,4275.384615384617,4273.846153846155,4184.615384615386,4183.076923076925,4225.641025641027,4185.641025641027,4185.641025641027,4199.487179487181,4191.282051282053,4305.641025641027,4298.46153846154,4388.71794871795,825.0,2044.0,2041.0,0.0,0.0,4.0,4.0,4.0,4.0,0.0,4.0,4.0,4.0,4.0,2.0,4.0,4.0,4.0,4.0,4.0,4.0
120.0,0.0,4337.435897435899,4341.0256410256425,4265.641025641027,4263.589743589745,4182.564102564104,4177.94871794872,4217.435897435899,4184.102564102565,4182.051282051283,4197.435897435899,4183.076923076925,4292.307692307694,4285.128205128207,4376.410256410258,882.0,2044.0,2041.0,0.0,0.0,4.0,4.0,4.0,4.0,0.0,4.0,4.0,4.0,4.0,2.0,4.0,4.0,4.0,4.0,4.0,4.0
121.0,0.0,4325.641025641027,4325.641025641027,4263.076923076925,4255.384615384617,4183.589743589745,4180.512820512822,4211.282051282053,4187.179487179489,4184.102564102565,4198.46153846154,4189.23076923077,4288.20512820513,4276.410256410258,4360.000000000002,863.0,2044.0,2039.0,0.0,0.0,4.0,4.0,4.0,4.0,0.0,4.0,4.0,4.0,4.0,2.0,4.0,4.0,4.0,4.0,4.0,4.0
122.0,0.0,4308.20512820513,4305.128205128207,4254.3589743589755,4249.23076923077,4185.128205128207,4184.615384615386,4175.384615384617,4188.20512820513,4186.153846153848,4200.000000000002,4189.23076923077,4281.538461538463,4262.051282051283,4332.8205128205145,864.0,2046.0,2042.0,0.0,0.0,4.0,4.0,4.0,4.0,0.0,4.0,4.0,4.0,4.0,2.0,4.0,4.0,4.0,4.0,4.0,4.0
123.0,0.0,4286.153846153848,4286.666666666668,4238.46153846154,4244.615384615386,4184.615384615386,4182.564102564104,4138.97435897436,4186.153846153848,4183.589743589745,4197.94871794872,4184.102564102565,4266.153846153848,4244.102564102565,4310.769230769232,825.0,2046.0,2041.0,0.0,0.0,4.0,4.0,4.0,4.0,0.0,4.0,4.0,4.0,4.0,2.0,4.0,4.0,4.0,4.0,4.0,4.0
124.0,0.0,4273.333333333335,4267.179487179489,4232.8205128205145,4241.538461538463,4185.641025641027,4181.538461538463,4161.0256410256425,4186.153846153848,4189.23076923077,4198.97435897436,4190.769230769232,4255.384615384617,4230.769230769232,4292.307692307694,882.0,2047.0,2039.0,0.0,0.0,4.0,4.0,4.0,4.0,0.0,4.0,4.0,4.0,4.0,2.0,4.0,4.0,4.0,4.0,4.0,4.0
125.0,0.0,4257.435897435899,4250.256410256412,4227.692307692309,4231.282051282053,4183.076923076925,4181.538461538463,4202.564102564104,4185.641025641027,4217.435897435899,4213.333333333335,4228.71794871795,4248.20512820513,4217.435897435899,4265.128205128207,863.0,2046.0,2041.0,0.0,0.0,4.0,4.0,4.0,4.0,0.0,4.0,4.0,4.0,4.0,2.0,4.0,4.0,4.0,4.0,4.0,4.0
126.0,0.0,4234.3589743589755,4244.615384615386,4217.94871794872,4213.846153846155,4185.128205128207,4177.435897435899,4198.97435897436,4183.589743589745,4223.076923076925,4215.384615384617,4238.46153846154,4238.97435897436,4200.000000000002,4244.615384615386,864.0,2047.0,2041.0,0.0,0.0,4.0,4.0,4.0,4.0,0.0,4.0,4.0,4.0,4.0,2.0,4.0,4.0,4.0,4.0,4.0,4.0
127.0,0.0,4222.051282051283,4238.97435897436,4214.3589743589755,4205.641025641027,4187.179487179489,4176.410256410258,4187.179487179489,4184.102564102565,4182.051282051283,4193.333333333335,4179.487179487181,4232.8205128205145,4187.692307692309,4236.410256410258,825.0,2046.0,2040.0,0.0,0.0,4.0,4.0,4.0,4.0,0.0,4.0,4.0,4.0,4.0,2.0,4.0,4.0,4.0,4.0,4.0,4.0
128.0,0.0,4212.8205128205145,4220.512820512822,4204.615384615386,4201.538461538463,4184.615384615386,4180.512820512822,4190.769230769232,4185.641025641027,4234.3589743589755,4218.46153846154,4251.794871794873,4224.102564102565,4176.923076923078,4220.512820512822,882.0,2046.0,2040.0,0.0,0.0,4.0,4.0,4.0,4.0,0.0,4.0,4.0,4.0,4.0,2.0,4.0,4.0,4.0,4.0,4.0,4.0
0.0,0.0,4194.871794871797,4202.051282051283,4188.71794871795,4191.794871794873,4186.666666666668,4181.538461538463,4179.487179487181,4183.589743589745,4191.282051282053,4202.564102564104,4198.97435897436,4207.179487179489,4158.46153846154,4198.46153846154,823.0,2048.0,2041.0,0.0,0.0,4.0,4.0,4.0,4.0,0.0,4.0,4.0,4.0,4.0,2.0,4.0,4.0,4.0,4.0,4.0,4.0
1.0,0.0,4180.512820512822,4193.333333333335,4178.46153846154,4183.076923076925,4185.641025641027,4173.333333333335,4168.20512820513,4183.076923076925,3701.0256410256425,3976.4102564102577,3528.2051282051298,4195.897435897437,4144.615384615386,4184.615384615386,852.0,2048.0,2041.0,0.0,0.0,4.0,4.0,4.0,4.0,0.0,4.0,4.0,4.0,4.0,2.0,4.0,4.0,4.0,4.0,4.0,4.0
2.0,0.0,4170.256410256412,4181.0256410256425,4170.769230769232,4173.846153846155,4185.128205128207,4168.20512820513,4171.794871794873,4180.000000000002,3136.410256410258,3713.846153846155,2748.7179487179505,4192.307692307694,4136.923076923078,4175.897435897437,840.0,2047.0,2040.0,0.0,0.0,4.0,4.0,4.0,4.0,0.0,4.0,4.0,4.0,4.0,2.0,4.0,4.0,4.0,4.0,4.0,4.0
3.0,0.0,4159.487179487181,4170.256410256412,4164.102564102565,4166.666666666668,4185.128205128207,4172.8205128205145,4169.743589743592,4180.000000000002,2995.8974358974374,3647.6923076923094,2551.282051282053,4189.23076923077,4134.871794871797,4170.256410256412,842.0,2047.0,2039.0,0.0,0.0,4.0,4.0,4.0,4.0,0.0,4.0,4.0,4.0,4.0,2.0,4.0,4.0,4.0,4.0,4.0,4.0
4.0,0.0,4153.333333333335,4169.743589743592,4162.564102564104,4167.692307692309,4182.051282051283,4174.3589743589755,4183.589743589745,4182.051282051283,3019.487179487181,3654.358974358976,2583.0769230769247,4188.20512820513,4134.871794871797,4165.641025641027,0.0,2046.0,2038.0,0.0,0.0,4.0,4.0,4.0,4.0,0.0,4.0,4.0,4.0,4.0,2.0,4.0,4.0,4.0,4.0,4.0,4.0
5.0,0.0,4148.71794871795,4163.076923076925,4158.97435897436,4165.641025641027,4184.615384615386,4170.769230769232,4226.666666666668,4176.410256410258,2927.1794871794887,3611.2820512820526,2455.384615384617,4184.615384615386,4123.589743589745,4154.871794871797,594.0,2045.0,2036.0,0.0,0.0,4.0,4.0,4.0,4.0,0.0,4.0,4.0,4.0,4.0,2.0,4.0,4.0,4.0,4.0,4.0,4.0
6.0,0.0,4144.102564102565,4151.282051282053,4156.923076923078,4160.512820512822,4182.051282051283,4171.282051282053,4260.000000000002,4176.410256410258,2892.3076923076937,3591.2820512820526,2406.153846153848,4182.564102564104,4112.8205128205145,4147.179487179489,803.0,2043.0,2035.0,0.0,0.0,4.0,4.0,4.0,4.0,0.0,4.0,4.0,4.0,4.0,2.0,4.0,4.0,4.0,4.0,4.0,4.0
7.0,0.0,4146.666666666668,4152.307692307694,4162.051282051283,4166.666666666668,4184.102564102565,4175.384615384617,4264.102564102565,4182.564102564104,2927.1794871794887,3601.0256410256425,2453.8461538461556,4189.23076923077,4117.94871794872,4149.743589743592,862.0,2041.0,2034.0,0.0,0.0,4.0,4.0,4.0,4.0,0.0,4.0,4.0,4.0,4.0,2.0,4.0,4.0,4.0,4.0,4.0,4.0
8.0,0.0,4151.794871794873,4159.487179487181,4166.666666666668,4171.794871794873,4188.71794871795,4174.3589743589755,4250.769230769232,4175.384615384617,2922.0512820512836,3599.487179487181,2449.743589743591,4195.897435897437,4125.128205128207,4155.384615384617,891.0,2042.0,2035.0,0.0,0.0,4.0,4.0,4.0,4.0,0.0,4.0,4.0,4.0,4.0,2.0,4.0,4.0,4.0,4.0,4.0,4.0
9.0,0.0,4150.769230769232,4162.564102564104,4168.71794871795,4170.256410256412,4183.076923076925,4171.794871794873,4232.307692307694,4167.179487179489,2921.5384615384633,3597.9487179487196,2452.3076923076937,4198.46153846154,4122.051282051283,4156.410256410258,211.0,2041.0,2036.0,0.0,0.0,4.0,4.0,4.0,4.0,0.0,4.0,4.0,4.0,4.0,2.0,4.0,4.0,4.0,4.0,4.0,4.0
10.0,0.0,4151.794871794873,4169.23076923077,4175.384615384617,4173.333333333335,4183.589743589745,4177.94871794872,4223.076923076925,4180.000000000002,2935.384615384617,3591.2820512820526,2464.615384615386,4203.076923076925,4122.564102564104,4157.94871794872,864.0,2040.0,2036.0,0.0,0.0,4.0,4.0,4.0,4.0,0.0,4.0,4.0,4.0,4.0,2.0,4.0,4.0,4.0,4.0,4.0,4.0
11.0,0.0,4154.3589743589755,4168.20512820513,4178.46153846154,4176.410256410258,4185.128205128207,4180.512820512822,4230.256410256412,4189.743589743592,2947.6923076923094,3588.2051282051298,2475.8974358974374,4205.128205128207,4125.128205128207,4157.94871794872,825.0,2040.0,2037.0,0.0,0.0,4.0,4.0,4.0,4.0,0.0,4.0,4.0,4.0,4.0,2.0,4.0,4.0,4.0,4.0,4.0,4.0
12.0,0.0,4148.71794871795,4156.410256410258,4173.333333333335,4170.256410256412,4184.615384615386,4175.897435897437,4230.256410256412,4186.153846153848,2946.6666666666683,3591.2820512820526,2479.487179487181,4203.076923076925,4121.0256410256425,4153.846153846155,888.0,2039.0,2037.0,0.0,0.0,4.0,4.0,4.0,4.0,0.0,4.0,4.0,4.0,4.0,2.0,4.0,4.0,4.0,4.0,4.0,4.0
13.0,0.0,4148.71794871795,4160.000000000002,4170.769230769232,4169.23076923077,4185.128205128207,4176.410256410258,4226.666666666668,4186.666666666668,2950.256410256412,3588.2051282051298,2489.743589743591,4205.128205128207,4120.512820512822,4156.410256410258,860.0,2040.0,2039.0,0.0,0.0,4.0,4.0,4.0,4.0,0.0,4.0,4.0,4.0,4.0,2.0,4.0,4.0,4.0,4.0,4.0,4.0
14.0,0.0,4151.794871794873,4169.23076923077,4170.256410256412,4177.435897435899,4182.051282051283,4178.97435897436,4236.410256410258,4189.743589743592,2970.256410256412,3586.1538461538476,2509.230769230771,4206.666666666668,4126.666666666668,4162.564102564104,864.0,2039.0,2039.0,0.0,0.0,4.0,4.0,4.0,4.0,0.0,4.0,4.0,4.0,4.0,2.0,4.0,4.0,4.0,4.0,4.0,4.0
15.0,0.0,4145.128205128207,4161.538461538463,4168.71794871795,4175.897435897437,4184.102564102565,4177.94871794872,4233.333333333335,4186.666666666668,2975.384615384617,3588.2051282051298,2515.384615384617,4199.487179487181,4120.512820512822,4157.94871794872,825.0,2038.0,2042.0,0.0,0.0,4.0,4.0,4.0,4.0,0.0,4.0,4.0,4.0,4.0,2.0,4.0,4.0,4.0,4.0,4.0,4.0
16.0,0.0,4141.0256410256425,4152.8205128205145,4165.641025641027,4168.20512820513,4184.102564102565,4174.3589743589755,4202.564102564104,4181.538461538463,2972.8205128205145,3586.6666666666683,2522.0512820512836,4192.8205128205145,4106.666666666668,4149.743589743592,0.0,2038.0,2042.0,0.0,0.0,4.0,4.0,4.0,4.0,0.0,4.0,4.0,4.0,4.0,2.0,4.0,4.0,4.0,4.0,4.0,4.0
17.0,0.0,4144.102564102565,4156.410256410258,4166.666666666668,4168.20512820513,4184.102564102565,4176.923076923078,4173.846153846155,4182.564102564104,2986.1538461538476,3585.641025641027,2540.512820512822,4194.3589743589755,4107.692307692309,4150.256410256412,0.0,2039.0,2043.0,0.0,0.0,4.0,4.0,4.0,4.0,0.0,4.0,4.0,4.0,4.0,2.0,4.0,4.0,4.0,4.0,4.0,4.0
18.0,0.0,4142.051282051283,4160.000000000002,4167.692307692309,4169.743589743592,4185.128205128207,4180.000000000002,4160.000000000002,4184.102564102565,3001.5384615384633,3589.743589743591,2557.4358974358993,4195.897435897437,4111.282051282053,4150.769230769232,0.0,2040.0,2043.0,0.0,0.0,4.0,4.0,4.0,4.0,0.0,4.0,4.0,4.0,4.0,2.0,4.0,4.0,4.0,4.0,4.0,4.0
19.0,0.0,4139.487179487181,4163.076923076925,4164.102564102565,4171.282051282053,4182.564102564104,4180.512820512822,4170.769230769232,4182.564102564104,3009.230769230771,3589.743589743591,2570.7692307692323,4193.846153846155,4106.666666666668,4146.153846153848,0.0,2038.0,2043.0,0.0,0.0,4.0,4.0,4.0,4.0,0.0,4.0,4.0,4.0,4.0,2.0,4.0,4.0,4.0,4.0,4.0,4.0
20.0,0.0,4148.71794871795,4171.282051282053,4170.769230769232,4184.102564102565,4185.128205128207,4187.179487179489,4209.23076923077,4186.153846153848,3029.743589743591,3589.230769230771,2595.8974358974374,4198.46153846154,4106.666666666668,4153.333333333335,0.0,2041.0,2043.0,0.0,0.0,4.0,4.0,4.0,4.0,0.0,4.0,4.0,4.0,4.0,2.0,4.0,4.0,4.0,4.0,4.0,4.0
21.0,0.0,4154.871794871797,4171.794871794873,4174.871794871797,4187.692307692309,4183.076923076925,4189.743589743592,4229.23076923077,4189.23076923077,3048.71794871795,3597.435897435899,2615.8974358974374,4203.589743589745,4110.769230769232,4158.97435897436,0.0,2041.0,2042.0,0.0,0.0,4.0,4.0,4.0,4.0,0.0,4.0,4.0,4.0,4.0,2.0,4.0,4.0,4.0,4.0,4.0,4.0
22.0,0.0,4145.128205128207,4162.051282051283,4163.589743589745,4172.307692307694,4182.564102564104,4181.538461538463,4226.153846153848,4186.153846153848,3048.2051282051298,3600.512820512822,2618.9743589743607,4193.846153846155,4106.153846153848,4145.128205128207,0.0,2041.0,2044.0,0.0,0.0,4.0,4.0,4.0,4.0,0.0,4.0,4.0,4.0,4.0,2.0,4.0,4.0,4.0,4.0,4.0,4.0
23.0,0.0,4142.051282051283,4161.538461538463,4162.564102564104,4171.282051282053,4188.20512820513,4181.0256410256425,4236.410256410258,4185.128205128207,3055.8974358974374,3597.9487179487196,2632.8205128205145,4188.20512820513,4105.641025641027,4142.564102564104,0.0,2041.0,2044.0,0.0,0.0,4.0,4.0,4.0,4.0,0.0,4.0,4.0,4.0,4.0,2.0,4.0,4.0,4.0,4.0,4.0,4.0
24.0,0.0,4147.692307692309,4169.23076923077,4169.743589743592,4180.512820512822,4184.615384615386,4187.692307692309,4258.46153846154,4189.23076923077,3075.8974358974374,3601.0256410256425,2656.9230769230785,4193.846153846155,4113.333333333335,4151.282051282053,0.0,2042.0,2046.0,0.0,0.0,4.0,4.0,4.0,4.0,0.0,4.0,4.0,4.0,4.0,2.0,4.0,4.0,4.0,4.0,4.0,4.0
25.0,0.0,4141.538461538463,4165.641025641027,4163.589743589745,4175.384615384617,4183.589743589745,4185.641025641027,4269.23076923077,4188.71794871795,3081.5384615384633,3604.102564102566,2668.2051282051298,4190.769230769232,4111.794871794873,4145.641025641027,0.0,2043.0,2045.0,0.0,0.0,4.0,4.0,4.0,4.0,0.0,4.0,4.0,4.0,4.0,2.0,4.0,4.0,4.0,4.0,4.0,4.0
26.0,0.0,4133.846153846155,4154.3589743589755,4155.384615384617,4167.179487179489,4185.128205128207,4178.46153846154,4279.487179487181,4183.589743589745,3083.589743589745,3601.0256410256425,2672.3076923076937,4183.076923076925,4104.615384615386,4138.97435897436,0.0,2044.0,2046.0,0.0,0.0,4.0,4.0,4.0,4.0,0.0,4.0,4.0,4.0,4.0,2.0,4.0,4.0,4.0,4.0,4.0,4.0
27.0,0.0,4141.538461538463,4162.051282051283,4165.641025641027,4170.256410256412,4181.538461538463,4180.512820512822,4300.000000000002,4184.102564102565,3100.512820512822,3601.0256410256425,2690.7692307692323,4189.743589743592,4106.153846153848,4143.076923076925,0.0,2044.0,2047.0,0.0,0.0,4.0,4.0,4.0,4.0,0.0,4.0,4.0,4.0,4.0,2.0,4.0,4.0,4.0,4.0,4.0,4.0
28.0,0.0,4151.794871794873,4172.307692307694,4176.410256410258,4174.871794871797,4183.589743589745,4188.20512820513,4314.871794871797,4189.23076923077,3116.9230769230785,3604.615384615386,2712.3076923076937,4203.076923076925,4112.307692307694,4147.692307692309,0.0,2043.0,2048.0,0.0,0.0,4.0,4.0,4.0,4.0,0.0,4.0,4.0,4.0,4.0,2.0,4.0,4.0,4.0,4.0,4.0,4.0
29.0,0.0,4146.666666666668,4162.051282051283,4168.71794871795,4171.282051282053,4181.538461538463,4187.692307692309,4294.871794871797,4187.179487179489,3118.9743589743607,3604.102564102566,2718.9743589743607,4201.0256410256425,4111.282051282053,4147.179487179489,0.0,2042.0,2049.0,0.0,0.0,4.0,4.0,4.0,4.0,0.0,4.0,4.0,4.0,4.0,2.0,4.0,4.0,4.0,4.0,4.0,4.0
30.0,0.0,4142.051282051283,4157.94871794872,4163.076923076925,4171.282051282053,4182.051282051283,4186.153846153848,4257.435897435899,4181.538461538463,3121.5384615384633,3604.102564102566,2726.1538461538476,4194.871794871797,4113.333333333335,4146.153846153848,0.0,2044.0,2048.0,0.0,0.0,4.0,4.0,4.0,4.0,0.0,4.0,4.0,4.0,4.0,2.0,4.0,4.0,4.0,4.0,4.0,4.0
31.0,0.0,4152.8205128205145,4171.282051282053,4178.46153846154,4183.589743589745,4185.641025641027,4189.743589743592,4249.23076923077,4185.641025641027,3136.9230769230785,3606.1538461538476,2746.6666666666683,4205.128205128207,4123.589743589745,4149.23076923077,0.0,2044.0,2047.0,0.0,0.0,4.0,4.0,4.0,4.0,0.0,4.0,4.0,4.0,4.0,2.0,4.0,4.0,4.0,4.0,4.0,4.0
32.0,0.0,4156.410256410258,4173.333333333335,4185.128205128207,4187.692307692309,4182.051282051283,4188.71794871795,4254.3589743589755,4186.153846153848,3149.230769230771,3605.128205128207,2762.0512820512836,4211.794871794873,4126.153846153848,4153.333333333335,0.0,2045.0,2048.0,0.0,0.0,4.0,4.0,4.0,4.0,0.0,4.0,4.0,4.0,4.0,2.0,4.0,4.0,4.0,4.0,4.0,4.0
33.0,0.0,4146.153846153848,4157.94871794872,4170.769230769232,4172.8205128205145,4183.589743589745,4183.076923076925,4239.487179487181,4173.846153846155,3147.6923076923094,3603.589743589745,2764.615384615386,4196.923076923078,4114.3589743589755,4147.692307692309,0.0,2046.0,2048.0,0.0,0.0,4.0,4.0,4.0,4.0,0.0,4.0,4.0,4.0,4.0,2.0,4.0,4.0,4.0,4.0,4.0,4.0
34.0,0.0,4138.97435897436,4149.743589743592,4160.512820512822,4163.589743589745,4184.102564102565,4181.0256410256425,4209.743589743592,4165.641025641027,3149.230769230771,3602.564102564104,2770.256410256412,4186.153846153848,4105.128205128207,4134.871794871797,0.0,2046.0,2048.0,0.0,0.0,4.0,4.0,4.0,4.0,0.0,4.0,4.0,4.0,4.0,2.0,4.0,4.0,4.0,4.0,4.0,4.0
35.0,0.0,4143.589743589745,4155.384615384617,4163.589743589745,4171.794871794873,4183.589743589745,4184.102564102565,4192.8205128205145,4169.23076923077,3164.615384615386,3603.589743589745,2789.230769230771,4195.384615384617,4108.20512820513,4134.3589743589755,0.0,2045.0,2046.0,0.0,0.0,4.0,4.0,4.0,4.0,0.0,4.0,4.0,4.0,4.0,2.0,4.0,4.0,4.0,4.0,4.0,4.0
36.0,0.0,4144.102564102565,4158.97435897436,4167.179487179489,4172.307692307694,4183.076923076925,4182.564102564104,4187.179487179489,4169.743589743592,3176.410256410258,3606.1538461538476,2806.6666666666683,4196.410256410258,4108.71794871795,4142.564102564104,0.0,2045.0,2047.0,0.0,0.0,4.0,4.0,4.0,4.0,0.0,4.0,4.0,4.0,4.0,2.0,4.0,4.0,4.0,4.0,4.0,4.0
37.0,0.0,4133.846153846155,4151.794871794873,4159.487179487181,4165.641025641027,4180.512820512822,4174.871794871797,4177.94871794872,4160.512820512822,3176.410256410258,3603.589743589745,2811.282051282053,4182.564102564104,4098.97435897436,4134.3589743589755,0.0,2044.0,2046.0,0.0,0.0,4.0,4.0,4.0,4.0,0.0,4.0,4.0,4.0,4.0,2.0,4.0,4.0,4.0,4.0,4.0,4.0
38.0,0.0,4132.8205128205145,4148.20512820513,4151.282051282053,4166.666666666668,4183.589743589745,4176.923076923078,4170.769230769232,4155.384615384617,3185.128205128207,3603.0769230769247,2820.512820512822,4178.46153846154,4095.384615384617,4120.512820512822,0.0,2045.0,2046.0,0.0,0.0,4.0,4.0,4.0,4.0,0.0,4.0,4.0,4.0,4.0,2.0,4.0,4.0,4.0,4.0,4.0,4.0
39.0,0.0,4145.128205128207,4161.0256410256425,4156.923076923078,4171.282051282053,4183.076923076925,4183.589743589745,4167.692307692309,4166.153846153848,3206.1538461538476,3612.3076923076937,2846.1538461538476,4186.153846153848,4110.769230769232,4131.794871794873,0.0,2045.0,2046.0,0.0,0.0,4.0,4.0,4.0,4.0,0.0,4.0,4.0,4.0,4.0,2.0,4.0,4.0,4.0,4.0,4.0,4.0
40.0,0.0,4150.256410256412,4167.179487179489,4165.128205128207,4173.333333333335,4185.128205128207,4185.128205128207,4171.282051282053,4176.923076923078,3221.5384615384633,3618.9743589743607,2866.6666666666683,4193.846153846155,4124.615384615386,4149.23076923077,0.0,2045.0,2047.0,0.0,0.0,4.0,4.0,4.0,4.0,0.0,4.0,4.0,4.0,4.0,2.0,4.0,4.0,4.0,4.0,4.0,4.0
41.0,0.0,4147.692307692309,4160.000000000002,4167.179487179489,4173.846153846155,4187.179487179489,4186.153846153848,4176.410256410258,4176.410256410258,3229.743589743591,3618.9743589743607,2876.410256410258,4197.94871794872,4125.128205128207,4148.20512820513,0.0,2044.0,2048.0,0.0,0.0,4.0,4.0,4.0,4.0,0.0,4.0,4.0,4.0,4.0,2.0,4.0,4.0,4.0,4.0,4.0,4.0
42.0,0.0,4152.8205128205145,4161.538461538463,4168.20512820513,4175.384615384617,4182.051282051283,4187.692307692309,4158.97435897436,4175.897435897437,3243.589743589745,3620.0000000000014,2894.8717948717963,4199.487179487181,4124.615384615386,4145.641025641027,0.0,2046.0,2051.0,0.0,0.0,4.0,4.0,4.0,4.0,0.0,4.0,4.0,4.0,4.0,2.0,4.0,4.0,4.0,4.0,4.0,4.0
43.0,0.0,4160.512820512822,4171.282051282053,4173.333333333335,4175.897435897437,4184.102564102565,4188.71794871795,4136.923076923078,4178.97435897436,3256.9230769230785,3623.0769230769247,2914.8717948717963,4202.564102564104,4128.20512820513,4147.179487179489,0.0,2046.0,2052.0,0.0,0.0,4.0,4.0,4.0,4.0,0.0,4.0,4.0,4.0,4.0,2.0,4.0,4.0,4.0,4.0,4.0,4.0
44.0,0.0,4155.384615384617,4170.256410256412,4175.897435897437,4177.435897435899,4184.615384615386,4186.666666666668,4176.410256410258,4175.897435897437,3262.5641025641044,3627.1794871794887,2923.589743589745,4203.076923076925,4126.153846153848,4145.641025641027,0.0,2047.0,2049.0,0.0,0.0,4.0,4.0,4.0,4.0,0.0,4.0,4.0,4.0,4.0,2.0,4.0,4.0,4.0,4.0,4.0,4.0
45.0,0.0,4151.794871794873,4166.153846153848,4173.333333333335,4178.97435897436,4184.102564102565,4185.641025641027,4251.282051282053,4173.333333333335,3273.333333333335,3633.333333333335,2936.9230769230785,4201.538461538463,4122.564102564104,4143.076923076925,0.0,2047.0,2049.0,0.0,0.0,4.0,4.0,4.0,4.0,0.0,4.0,4.0,4.0,4.0,2.0,4.0,4.0,4.0,4.0,4.0,4.0
46.0,0.0,4155.897435897437,4169.743589743592,4171.282051282053,4176.923076923078,4186.666666666668,4185.641025641027,4256.923076923078,4171.282051282053,3287.1794871794887,3636.9230769230785,2954.358974358976,4202.564102564104,4123.589743589745,4144.615384615386,0.0,2047.0,2047.0,0.0,0.0,4.0,4.0,4.0,4.0,0.0,4.0,4.0,4.0,4.0,2.0,4.0,4.0,4.0,4.0,4.0,4.0
47.0,0.0,4154.3589743589755,4169.743589743592,4171.282051282053,4172.8205128205145,4183.076923076925,4184.615384615386,4216.410256410258,4164.102564102565,3293.8461538461556,3634.358974358976,2966.1538461538476,4202.051282051283,4121.0256410256425,4143.589743589745,0.0,2046.0,2047.0,0.0,0.0,4.0,4.0,4.0,4.0,0.0,4.0,4.0,4.0,4.0,2.0,4.0,4.0,4.0,4.0,4.0,4.0
48.0,0.0,4154.3589743589755,4169.743589743592,4175.897435897437,4178.46153846154,4184.102564102565,4188.71794871795,4223.076923076925,4172.8205128205145,3312.8205128205145,3634.8717948717963,2990.256410256412,4202.051282051283,4120.512820512822,4143.076923076925,0.0,2046.0,2047.0,0.0,0.0,4.0,4.0,4.0,4.0,0.0,4.0,4.0,4.0,4.0,2.0,4.0,4.0,4.0,4.0,4.0,4.0
49.0,0.0,4157.94871794872,4171.282051282053,4179.487179487181,4184.615384615386,4183.589743589745,4192.307692307694,4242.051282051283,4189.23076923077,3337.435897435899,3643.589743589745,3018.9743589743607,4203.589743589745,4130.256410256412,4144.615384615386,0.0,2045.0,2047.0,0.0,0.0,4.0,4.0,4.0,4.0,0.0,4.0,4.0,4.0,4.0,2.0,4.0,4.0,4.0,4.0,4.0,4.0
50.0,0.0,4153.846153846155,4166.153846153848,4174.871794871797,4175.384615384617,4181.538461538463,4186.666666666668,4220.000000000002,4182.051282051283,3344.102564102566,3649.743589743591,3032.3076923076937,4200.512820512822,4130.769230769232,4140.000000000002,0.0,2044.0,2046.0,0.0,0.0,4.0,4.0,4.0,4.0,0.0,4.0,4.0,4.0,4.0,2.0,4.0,4.0,4.0,4.0,4.0,4.0
51.0,0.0,4151.794871794873,4164.615384615386,4171.794871794873,4171.794871794873,4184.102564102565,4183.589743589745,4199.487179487181,4169.23076923077,3349.230769230771,3651.7948717948734,3045.641025641027,4196.410256410258,4124.102564102565,4140.000000000002,0.0,2044.0,2045.0,0.0,0.0,4.0,4.0,4.0,4.0,0.0,4.0,4.0,4.0,4.0,2.0,4.0,4.0,4.0,4.0,4.0,4.0
52.0,0.0,4160.512820512822,4174.871794871797,4177.94871794872,4183.076923076925,4182.564102564104,4188.20512820513,4193.333333333335,4173.846153846155,3369.230769230771,3652.8205128205145,3068.2051282051298,4203.589743589745,4130.256410256412,4148.20512820513,0.0,2043.0,2046.0,0.0,0.0,4.0,4.0,4.0,4.0,0.0,4.0,4.0,4.0,4.0,2.0,4.0,4.0,4.0,4.0,4.0,4.0
53.0,0.0,4167.179487179489,4182.051282051283,4185.641025641027,4189.23076923077,4185.128205128207,4194.871794871797,4187.692307692309,4178.46153846154,3387.6923076923094,3654.358974358976,3088.2051282051298,4212.307692307694,4141.0256410256425,4151.794871794873,0.0,2044.0,2047.0,0.0,0.0,4.0,4.0,4.0,4.0,0.0,4.0,4.0,4.0,4.0,2.0,4.0,4.0,4.0,4.0,4.0,4.0
54.0,0.0,4164.615384615386,4180.000000000002,4183.076923076925,4184.102564102565,4186.666666666668,4191.794871794873,4182.564102564104,4170.769230769232,3393.8461538461556,3656.410256410258,3100.512820512822,4207.692307692309,4140.000000000002,4146.153846153848,0.0,2042.0,2048.0,0.0,0.0,4.0,4.0,4.0,4.0,0.0,4.0,4.0,4.0,4.0,2.0,4.0,4.0,4.0,4.0,4.0,4.0
55.0,0.0,4159.487179487181,4177.435897435899,4176.410256410258,4182.564102564104,4184.615384615386,4184.102564102565,4172.307692307694,4168.20512820513,3398.46153846154,3658.46153846154,3110.256410256412,4201.538461538463,4136.923076923078,4140.000000000002,0.0,2043.0,2050.0,0.0,0.0,4.0,4.0,4.0,4.0,0.0,4.0,4.0,4.0,4.0,2.0,4.0,4.0,4.0,4.0,4.0,4.0
56.0,0.0,4158.97435897436,4173.846153846155,4181.0256410256425,4181.538461538463,4186.153846153848,4183.589743589745,4175.897435897437,4170.256410256412,3408.2051282051298,3661.5384615384633,3123.0769230769247,4205.641025641027,4132.8205128205145,4144.615384615386,0.0,2043.0,2051.0,0.0,0.0,4.0,4.0,4.0,4.0,0.0,4.0,4.0,4.0,4.0,2.0,4.0,4.0,4.0,4.0,4.0,4.0
57.0,0.0,4154.3589743589755,4166.666666666668,4178.97435897436,4171.282051282053,4183.076923076925,4180.512820512822,4185.641025641027,4167.692307692309,3412.8205128205145,3663.589743589745,3134.358974358976,4202.564102564104,4122.564102564104,4144.615384615386,0.0,2045.0,2051.0,0.0,0.0,4.0,4.0,4.0,4.0,0.0,4.0,4.0,4.0,4.0,2.0,4.0,4.0,4.0,4.0,4.0,4.0
58.0,0.0,4144.102564102565,4161.538461538463,4166.666666666668,4162.051282051283,4183.589743589745,4178.46153846154,4173.846153846155,4165.128205128207,3417.435897435899,3666.1538461538476,3143.0769230769247,4187.692307692309,4116.923076923078,4131.794871794873,0.0,2045.0,2051.0,0.0,0.0,4.0,4.0,4.0,4.0,0.0,4.0,4.0,4.0,4.0,2.0,4.0,4.0,4.0,4.0,4.0,4.0
59.0,0.0,4149.23076923077,4164.102564102565,4168.71794871795,4164.615384615386,4185.641025641027,4181.538461538463,4152.307692307694,4167.692307692309,3432.8205128205145,3666.6666666666683,3158.46153846154,4189.743589743592,4125.641025641027,4131.794871794873,0.0,2045.0,2051.0,0.0,0.0,4.0,4.0,4.0,4.0,0.0,4.0,4.0,4.0,4.0,2.0,4.0,4.0,4.0,4.0,4.0,4.0
60.0,0.0,4165.641025641027,4173.846153846155,4177.435897435899,4173.333333333335,4183.589743589745,4181.538461538463,4157.435897435899,4167.692307692309,3446.1538461538476,3664.615384615386,3177.435897435899,4205.128205128207,4139.487179487181,4148.20512820513,0.0,2045.0,2052.0,0.0,0.0,4.0,4.0,4.0,4.0,0.0,4.0,4.0,4.0,4.0,2.0,4.0,4.0,4.0,4.0,4.0,4.0
61.0,0.0,4184.102564102565,4196.410256410258,4185.641025641027,4184.102564102565,4184.102564102565,4181.538461538463,4169.23076923077,4165.128205128207,3455.8974358974374,3669.743589743591,3194.358974358976,4217.435897435899,4156.410256410258,4168.20512820513,0.0,2045.0,2051.0,0.0,0.0,4.0,4.0,4.0,4.0,0.0,4.0,4.0,4.0,4.0,2.0,4.0,4.0,4.0,4.0,4.0,4.0
62.0,0.0,4215.897435897437,4229.743589743592,4205.128205128207,4206.153846153848,4183.076923076925,4186.666666666668,4140.000000000002,4168.20512820513,3470.7692307692323,3680.512820512822,3215.384615384617,4233.846153846155,4184.102564102565,4198.97435897436,0.0,2045.0,2052.0,0.0,0.0,4.0,4.0,4.0,4.0,0.0,4.0,4.0,4.0,4.0,2.0,4.0,4.0,4.0,4.0,4.0,4.0
63.0,0.0,4251.282051282053,4260.000000000002,4225.641025641027,4227.179487179489,4186.153846153848,4191.282051282053,4096.410256410258,4169.23076923077,3482.0512820512836,3684.615384615386,3234.358974358976,4251.282051282053,4211.794871794873,4235.384615384617,0.0,2045.0,2049.0,0.0,0.0,4.0,4.0,4.0,4.0,0.0,4.0,4.0,4.0,4.0,2.0,4.0,4.0,4.0,4.0,4.0,4.0
64.0,0.0,4279.487179487181,4287.179487179489,4234.871794871797,4241.538461538463,4187.179487179489,4189.23076923077,4097.435897435899,4164.615384615386,3484.102564102566,3680.512820512822,3243.0769230769247,4262.051282051283,4234.3589743589755,4264.615384615386,823.0,2045.0,2048.0,0.0,0.0,4.0,4.0,4.0,4.0,0.0,4.0,4.0,4.0,4.0,2.0,4.0,4.0,4.0,4.0,4.0,4.0
65.0,0.0,4314.3589743589755,4320.000000000002,4251.282051282053,4257.435897435899,4183.076923076925,4189.23076923077,4135.897435897437,4166.153846153848,3496.410256410258,3680.512820512822,3256.9230769230785,4276.923076923078,4254.3589743589755,4296.923076923078,852.0,2045.0,2047.0,0.0,0.0,4.0,4.0,4.0,4.0,0.0,4.0,4.0,4.0,4.0,2.0,4.0,4.0,4.0,4.0,4.0,4.0
66.0,0.0,4345.128205128207,4344.102564102565,4272.8205128205145,4269.743589743592,4187.692307692309,4191.794871794873,4142.051282051283,4172.307692307694,3517.9487179487196,3685.1282051282064,3280.0000000000014,4297.435897435899,4270.256410256412,4330.256410256412,840.0,2046.0,2047.0,0.0,0.0,4.0,4.0,4.0,4.0,0.0,4.0,4.0,4.0,4.0,2.0,4.0,4.0,4.0,4.0,4.0,4.0
67.0,0.0,4348.71794871795,4347.179487179488,4272.307692307694,4269.23076923077,4186.666666666668,4188.71794871795,4117.435897435899,4168.71794871795,3526.1538461538476,3686.6666666666683,3295.384615384617,4300.512820512822,4277.94871794872,4340.512820512822,842.0,2045.0,2046.0,0.0,0.0,4.0,4.0,4.0,4.0,0.0,4.0,4.0,4.0,4.0,2.0,4.0,4.0,4.0,4.0,4.0,4.0
68.0,0.0,4342.564102564104,4344.615384615386,4263.589743589745,4267.692307692309,4183.076923076925,4183.076923076925,4110.769230769232,4158.46153846154,3531.7948717948734,3691.7948717948734,3306.6666666666683,4291.794871794873,4277.435897435899,4331.794871794873,0.0,2047.0,2045.0,0.0,0.0,4.0,4.0,4.0,4.0,0.0,4.0,4.0,4.0,4.0,2.0,4.0,4.0,4.0,4.0,4.0,4.0
69.0,0.0,4338.97435897436,4342.564102564104,4265.128205128207,4268.20512820513,4186.153846153848,4178.97435897436,4114.871794871797,4155.384615384617,3547.1794871794887,3698.9743589743607,3323.589743589745,4291.794871794873,4270.769230769232,4324.102564102565,594.0,2048.0,2045.0,0.0,0.0,4.0,4.0,4.0,4.0,0.0,4.0,4.0,4.0,4.0,2.0,4.0,4.0,4.0,4.0,4.0,4.0
70.0,0.0,4328.71794871795,4329.743589743592,4265.128205128207,4266.666666666668,4186.153846153848,4182.051282051283,4126.153846153848,4161.538461538463,3562.564102564104,3700.0000000000014,3341.0256410256425,4295.897435897437,4262.051282051283,4315.384615384617,803.0,2049.0,2047.0,0.0,0.0,4.0,4.0,4.0,4.0,0.0,4.0,4.0,4.0,4.0,2.0,4.0,4.0,4.0,4.0,4.0,4.0
71.0,0.0,4318.46153846154,4314.3589743589755,4260.512820512822,4265.128205128207,4187.692307692309,4187.179487179489,4152.8205128205145,4164.615384615386,3575.384615384617,3700.512820512822,3356.410256410258,4287.179487179489,4247.692307692309,4298.97435897436,861.0,2047.0,2047.0,0.0,0.0,4.0,4.0,4.0,4.0,0.0,4.0,4.0,4.0,4.0,2.0,4.0,4.0,4.0,4.0,4.0,4.0
72.0,0.0,4299.487179487181,4301.0256410256425,4249.743589743592,4250.769230769232,4185.128205128207,4182.564102564104,4176.923076923078,4157.435897435899,3582.0512820512836,3708.71794871795,3364.615384615386,4266.153846153848,4220.000000000002,4270.256410256412,891.0,2047.0,2047.0,0.0,0.0,4.0,4.0,4.0,4.0,0.0,4.0,4.0,4.0,4.0,2.0,4.0,4.0,4.0,4.0,4.0,4.0
73.0,0.0,4266.153846153848,4273.333333333335,4231.282051282053,4228.71794871795,4184.615384615386,4175.384615384617,4193.846153846155,4150.256410256412,3581.5384615384633,3713.846153846155,3367.6923076923094,4247.179487179489,4194.3589743589755,4237.94871794872,212.0,2047.0,2047.0,0.0,0.0,4.0,4.0,4.0,4.0,0.0,4.0,4.0,4.0,4.0,2.0,4.0,4.0,4.0,4.0,4.0,4.0
74.0,0.0,4248.20512820513,4244.102564102565,4217.435897435899,4219.487179487181,4185.641025641027,4176.923076923078,4194.871794871797,4148.71794871795,3586.1538461538476,3711.7948717948734,3377.9487179487196,4238.46153846154,4185.128205128207,4218.46153846154,864.0,2046.0,2044.0,0.0,0.0,4.0,4.0,4.0,4.0,0.0,4.0,4.0,4.0,4.0,2.0,4.0,4.0,4.0,4.0,4.0,4.0
75.0,0.0,4243.076923076925,4238.46153846154,4212.307692307694,4221.538461538463,4183.589743589745,4180.512820512822,4165.641025641027,4152.8205128205145,3605.641025641027,3715.8974358974374,3400.0000000000014,4237.435897435899,4185.641025641027,4207.692307692309,825.0,2045.0,2045.0,0.0,0.0,4.0,4.0,4.0,4.0,0.0,4.0,4.0,4.0,4.0,2.0,4.0,4.0,4.0,4.0,4.0,4.0
76.0,0.0,4229.743589743592,4242.564102564104,4209.23076923077,4215.384615384617,4187.692307692309,4183.076923076925,4145.641025641027,4160.000000000002,3627.6923076923094,3727.1794871794887,3423.0769230769247,4235.897435897437,4183.076923076925,4196.410256410258,886.0,2046.0,2046.0,0.0,0.0,4.0,4.0,4.0,4.0,0.0,4.0,4.0,4.0,4.0,2.0,4.0,4.0,4.0,4.0,4.0,4.0
77.0,0.0,4215.897435897437,4230.769230769232,4205.641025641027,4207.692307692309,4186.153846153848,4182.051282051283,4166.153846153848,4166.153846153848,3641.5384615384633,3731.7948717948734,3441.5384615384633,4232.8205128205145,4174.3589743589755,4187.179487179489,858.0,2044.0,2046.0,0.0,0.0,4.0,4.0,4.0,4.0,0.0,4.0,4.0,4.0,4.0,2.0,4.0,4.0,4.0,4.0,4.0,4.0
78.0,0.0,4208.20512820513,4212.8205128205145,4201.538461538463,4206.153846153848,4183.589743589745,4180.512820512822,4190.256410256412,4168.20512820513,3651.2820512820526,3729.230769230771,3457.435897435899,4226.153846153848,4170.256410256412,4177.94871794872,864.0,2043.0,2043.0,0.0,0.0,4.0,4.0,4.0,4.0,0.0,4.0,4.0,4.0,4.0,2.0,4.0,4.0,4.0,4.0,4.0,4.0
79.0,0.0,4199.487179487181,4204.102564102565,4196.410256410258,4204.102564102565,4188.71794871795,4180.000000000002,4192.8205128205145,4164.615384615386,3660.512820512822,3732.8205128205145,3471.7948717948734,4220.000000000002,4167.179487179489,4168.20512820513,825.0,2042.0,2044.0,0.0,0.0,4.0,4.0,4.0,4.0,0.0,4.0,4.0,4.0,4.0,2.0,4.0,4.0,4.0,4.0,4.0,4.0
80.0,0.0,4187.179487179489,4194.871794871797,4187.179487179489,4200.000000000002,4185.641025641027,4177.94871794872,4190.769230769232,4158.97435897436,3668.2051282051298,3738.46153846154,3485.128205128207,4214.871794871797,4160.512820512822,4155.897435897437,886.0,2043.0,2042.0,0.0,0.0,4.0,4.0,4.0,4.0,0.0,4.0,4.0,4.0,4.0,2.0,4.0,4.0,4.0,4.0,4.0,4.0
81.0,0.0,4174.871794871797,4186.666666666668,4180.000000000002,4192.307692307694,4184.102564102565,4177.435897435899,4194.871794871797,4156.410256410258,3676.9230769230785,3737.9487179487196,3496.410256410258,4205.641025641027,4154.3589743589755,4143.589743589745,858.0,2041.0,2043.0,0.0,0.0,4.0,4.0,4.0,4.0,0.0,4.0,4.0,4.0,4.0,2.0,4.0,4.0,4.0,4.0,4.0,4.0
82.0,0.0,4165.128205128207,4179.487179487181,4171.794871794873,4179.487179487181,4184.615384615386,4173.846153846155,4194.3589743589755,4156.410256410258,3684.102564102566,3742.0512820512836,3505.128205128207,4197.94871794872,4145.641025641027,4136.410256410258,864.0,2041.0,2043.0,0.0,0.0,4.0,4.0,4.0,4.0,0.0,4.0,4.0,4.0,4.0,2.0,4.0,4.0,4.0,4.0,4.0,4.0
83.0,0.0,4158.97435897436,4171.794871794873,4163.589743589745,4168.71794871795,4184.615384615386,4171.282051282053,4186.153846153848,4154.871794871797,3691.2820512820526,3751.7948717948734,3517.435897435899,4193.333333333335,4137.94871794872,4130.769230769232,825.0,2041.0,2043.0,0.0,0.0,4.0,4.0,4.0,4.0,0.0,4.0,4.0,4.0,4.0,2.0,4.0,4.0,4.0,4.0,4.0,4.0
84.0,0.0,4160.000000000002,4170.769230769232,4166.666666666668,4175.384615384617,4187.179487179489,4177.435897435899,4187.179487179489,4157.435897435899,3707.6923076923094,3755.384615384617,3542.564102564104,4193.846153846155,4145.641025641027,4129.743589743592,886.0,2040.0,2042.0,0.0,0.0,4.0,4.0,4.0,4.0,0.0,4.0,4.0,4.0,4.0,2.0,4.0,4.0,4.0,4.0,4.0,4.0
85.0,0.0,4165.128205128207,4172.307692307694,4173.333333333335,4184.102564102565,4182.564102564104,4180.000000000002,4204.102564102565,4160.512820512822,3726.1538461538476,3757.435897435899,3564.615384615386,4197.435897435899,4157.94871794872,4134.871794871797,858.0,2042.0,2043.0,0.0,0.0,4.0,4.0,4.0,4.0,0.0,4.0,4.0,4.0,4.0,2.0,4.0,4.0,4.0,4.0,4.0,4.0
86.0,0.0,4163.076923076925,4170.256410256412,4172.307692307694,4176.923076923078,4183.076923076925,4174.871794871797,4209.23076923077,4157.435897435899,3734.8717948717963,3765.1282051282064,3573.333333333335,4198.97435897436,4150.256410256412,4134.871794871797,864.0,2043.0,2043.0,0.0,0.0,4.0,4.0,4.0,4.0,0.0,4.0,4.0,4.0,4.0,2.0,4.0,4.0,4.0,4.0,4.0,4.0
87.0,0.0,4162.564102564104,4168.20512820513,4173.333333333335,4173.846153846155,4185.128205128207,4176.923076923078,4187.692307692309,4159.487179487181,3743.589743589745,3770.7692307692323,3588.71794871795,4200.512820512822,4143.076923076925,4130.769230769232,825.0,2044.0,2043.0,0.0,0.0,4.0,4.0,4.0,4.0,0.0,4.0,4.0,4.0,4.0,2.0,4.0,4.0,4.0,4.0,4.0,4.0
88.0,0.0,4167.179487179489,4172.307692307694,4176.410256410258,4180.512820512822,4183.076923076925,4179.487179487181,4173.846153846155,4169.23076923077,3757.9487179487196,3769.230769230771,3611.2820512820526,4201.0256410256425,4150.256410256412,4131.282051282053,886.0,2044.0,2044.0,0.0,0.0,4.0,4.0,4.0,4.0,0.0,4.0,4.0,4.0,4.0,2.0,4.0,4.0,4.0,4.0,4.0,4.0
89.0,0.0,4157.435897435899,4166.153846153848,4172.307692307694,4176.923076923078,4187.179487179489,4174.871794871797,4174.871794871797,4167.692307692309,3763.589743589745,3770.7692307692323,3617.9487179487196,4193.846153846155,4144.615384615386,4127.179487179489,858.0,2045.0,2043.0,0.0,0.0,4.0,4.0,4.0,4.0,0.0,4.0,4.0,4.0,4.0,2.0,4.0,4.0,4.0,4.0,4.0,4.0
90.0,0.0,4144.615384615386,4154.3589743589755,4165.128205128207,4166.153846153848,4186.153846153848,4168.71794871795,4168.71794871795,4156.923076923078,3765.641025641027,3778.9743589743607,3621.0256410256425,4187.179487179489,4130.769230769232,4115.897435897437,864.0,2044.0,2043.0,0.0,0.0,4.0,4.0,4.0,4.0,0.0,4.0,4.0,4.0,4.0,2.0,4.0,4.0,4.0,4.0,4.0,4.0
91.0,0.0,4151.794871794873,4154.871794871797,4167.692307692309,4169.743589743592,4185.128205128207,4173.846153846155,4164.102564102565,4157.94871794872,3780.0000000000014,3785.641025641027,3638.9743589743607,4191.282051282053,4132.307692307694,4115.897435897437,825.0,2045.0,2045.0,0.0,0.0,4.0,4.0,4.0,4.0,0.0,4.0,4.0,4.0,4.0,2.0,4.0,4.0,4.0,4.0,4.0,4.0
92.0,0.0,4159.487179487181,4157.94871794872,4176.410256410258,4174.3589743589755,4186.666666666668,4181.0256410256425,4165.128205128207,4164.615384615386,3792.8205128205145,3786.1538461538476,3656.410256410258,4197.94871794872,4140.000000000002,4122.051282051283,886.0,2046.0,2046.0,0.0,0.0,4.0,4.0,4.0,4.0,0.0,4.0,4.0,4.0,4.0,2.0,4.0,4.0,4.0,4.0,4.0,4.0
93.0,0.0,4151.282051282053,4154.3589743589755,4177.94871794872,4168.71794871795,4184.615384615386,4176.410256410258,4165.641025641027,4165.128205128207,3794.8717948717963,3786.6666666666683,3665.1282051282064,4194.871794871797,4136.410256410258,4118.46153846154,858.0,2046.0,2045.0,0.0,0.0,4.0,4.0,4.0,4.0,0.0,4.0,4.0,4.0,4.0,2.0,4.0,4.0,4.0,4.0,4.0,4.0
94.0,0.0,4151.794871794873,4153.333333333335,4175.897435897437,4167.692307692309,4185.128205128207,4175.384615384617,4168.20512820513,4167.692307692309,3805.641025641027,3793.333333333335,3677.9487179487196,4189.23076923077,4132.8205128205145,4117.435897435899,864.0,2047.0,2045.0,0.0,0.0,4.0,4.0,4.0,4.0,0.0,4.0,4.0,4.0,4.0,2.0,4.0,4.0,4.0,4.0,4.0,4.0
95.0,0.0,4162.051282051283,4157.435897435899,4177.94871794872,4175.384615384617,4184.615384615386,4178.97435897436,4173.333333333335,4173.333333333335,3823.0769230769247,3801.0256410256425,3696.9230769230785,4193.333333333335,4137.435897435899,4121.0256410256425,825.0,2047.0,2044.0,0.0,0.0,4.0,4.0,4.0,4.0,0.0,4.0,4.0,4.0,4.0,2.0,4.0,4.0,4.0,4.0,4.0,4.0
96.0,0.0,4161.0256410256425,4155.384615384617,4177.94871794872,4175.897435897437,4184.102564102565,4177.94871794872,4176.923076923078,4167.692307692309,3832.3076923076937,3801.0256410256425,3710.256410256412,4196.923076923078,4136.923076923078,4115.384615384617,886.0,2048.0,2044.0,0.0,0.0,4.0,4.0,4.0,4.0,0.0,4.0,4.0,4.0,4.0,2.0,4.0,4.0,4.0,4.0,4.0,4.0
97.0,0.0,4152.8205128205145,4152.307692307694,4171.794871794873,4171.794871794873,4185.128205128207,4175.384615384617,4175.384615384617,4156.923076923078,3838.46153846154,3802.0512820512836,3717.9487179487196,4188.71794871795,4130.256410256412,4110.256410256412,858.0,2048.0,2045.0,0.0,0.0,4.0,4.0,4.0,4.0,0.0,4.0,4.0,4.0,4.0,2.0,4.0,4.0,4.0,4.0,4.0,4.0
98.0,0.0,4151.282051282053,4152.8205128205145,4168.20512820513,4170.256410256412,4184.102564102565,4174.871794871797,4165.641025641027,4156.410256410258,3844.102564102566,3810.256410256412,3727.6923076923094,4183.589743589745,4129.743589743592,4110.256410256412,864.0,2047.0,2044.0,0.0,0.0,4.0,4.0,4.0,4.0,0.0,4.0,4.0,4.0,4.0,2.0,4.0,4.0,4.0,4.0,4.0,4.0
99.0,0.0,4154.3589743589755,4156.410256410258,4169.743589743592,4173.846153846155,4186.666666666668,4178.97435897436,4166.153846153848,4158.46153846154,3852.8205128205145,3817.9487179487196,3743.0769230769247,4188.20512820513,4137.94871794872,4110.769230769232,825.0,2048.0,2044.0,0.0,0.0,4.0,4.0,4.0,4.0,0.0,4.0,4.0,4.0,4.0,2.0,4.0,4.0,4.0,4.0,4.0,4.0
