COUNTER,INTERPOLATED,AF3,F7,F3,FC5,T7,P7,O1,O2,P8,T8,FC6,F4,F8,AF4,RAW_CQ,GYROX,GYROY,MARKER,SYNC,CQ_AF3,CQ_F7,CQ_F3,CQ_FC5,CQ_T7,CQ_P7,CQ_O1,CQ_O2,CQ_P8,CQ_T8,CQ_FC6,CQ_F4,CQ_F8,CQ_AF4,CQ_CMS,CQ_DRL
37.0,0.0,4227.692307692309,4328.71794871795,4214.871794871797,4169.23076923077,4189.23076923077,4197.435897435899,4180.000000000002,4178.97435897436,4163.076923076925,4184.102564102565,4155.384615384617,4217.94871794872,4230.256410256412,4210.256410256412,0.0,2047.0,2048.0,0.0,0.0,0.0,0.0,0.0,0.0,0.0,0.0,0.0,0.0,0.0,0.0,0.0,0.0,0.0,0.0,0.0,0.0
38.0,0.0,4229.743589743592,4326.666666666668,4207.179487179489,4179.487179487181,4185.128205128207,4196.923076923078,4169.743589743592,4170.256410256412,4156.410256410258,4184.102564102565,4140.512820512822,4214.3589743589755,4225.641025641027,4206.666666666668,0.0,2047.0,2048.0,0.0,0.0,0.0,0.0,0.0,0.0,0.0,0.0,0.0,0.0,0.0,0.0,0.0,0.0,0.0,0.0,0.0,0.0
39.0,0.0,4233.846153846155,4317.94871794872,4201.0256410256425,4182.051282051283,4183.076923076925,4198.97435897436,4177.94871794872,4179.487179487181,4165.641025641027,4186.153846153848,4134.3589743589755,4215.384615384617,4232.8205128205145,4215.384615384617,0.0,2047.0,2048.0,0.0,0.0,0.0,0.0,0.0,0.0,0.0,0.0,0.0,0.0,0.0,0.0,0.0,0.0,0.0,0.0,0.0,0.0
40.0,0.0,4230.256410256412,4291.282051282053,4210.256410256412,4169.743589743592,4187.179487179489,4189.23076923077,4186.153846153848,4186.153846153848,4173.333333333335,4186.153846153848,4142.051282051283,4221.538461538463,4233.846153846155,4216.410256410258,0.0,2047.0,2048.0,0.0,0.0,0.0,0.0,0.0,0.0,0.0,0.0,0.0,0.0,0.0,0.0,0.0,0.0,0.0,0.0,0.0,0.0
41.0,0.0,4215.897435897437,4273.333333333335,4200.000000000002,4170.256410256412,4185.641025641027,4182.051282051283,4177.94871794872,4184.615384615386,4169.743589743592,4184.102564102565,4142.564102564104,4211.282051282053,4222.051282051283,4194.871794871797,0.0,2047.0,2048.0,0.0,0.0,0.0,0.0,0.0,0.0,0.0,0.0,0.0,0.0,0.0,0.0,0.0,0.0,0.0,0.0,0.0,0.0
42.0,0.0,4210.769230769232,4270.769230769232,4189.23076923077,4184.102564102565,4187.179487179489,4186.666666666668,4170.256410256412,4186.153846153848,4168.20512820513,4185.128205128207,4132.307692307694,4212.307692307694,4228.20512820513,4185.128205128207,0.0,2047.0,2048.0,0.0,0.0,0.0,0.0,0.0,0.0,0.0,0.0,0.0,0.0,0.0,0.0,0.0,0.0,0.0,0.0,0.0,0.0
43.0,0.0,4214.3589743589755,4256.410256410258,4196.923076923078,4181.538461538463,4187.179487179489,4186.153846153848,4166.153846153848,4177.435897435899,4167.692307692309,4186.666666666668,4124.102564102565,4216.410256410258,4237.435897435899,4197.435897435899,0.0,2047.0,2048.0,0.0,0.0,0.0,0.0,0.0,0.0,0.0,0.0,0.0,0.0,0.0,0.0,0.0,0.0,0.0,0.0,0.0,0.0
44.0,0.0,4213.846153846155,4227.692307692309,4203.076923076925,4176.410256410258,4184.102564102565,4183.076923076925,4164.615384615386,4169.23076923077,4165.641025641027,4185.128205128207,4127.179487179489,4215.384615384617,4221.538461538463,4205.641025641027,0.0,2047.0,2048.0,0.0,0.0,0.0,0.0,0.0,0.0,0.0,0.0,0.0,0.0,0.0,0.0,0.0,0.0,0.0,0.0,0.0,0.0
45.0,0.0,4210.769230769232,4209.23076923077,4200.000000000002,4189.23076923077,4185.641025641027,4188.71794871795,4172.307692307694,4178.97435897436,4169.23076923077,4189.743589743592,4141.538461538463,4220.000000000002,4217.435897435899,4204.102564102565,0.0,2047.0,2048.0,0.0,0.0,0.0,0.0,0.0,0.0,0.0,0.0,0.0,0.0,0.0,0.0,0.0,0.0,0.0,0.0,0.0,0.0
46.0,0.0,4208.20512820513,4199.487179487181,4190.256410256412,4193.333333333335,4185.641025641027,4187.179487179489,4170.769230769232,4176.923076923078,4168.20512820513,4189.23076923077,4136.410256410258,4211.282051282053,4233.333333333335,4195.897435897437,0.0,2047.0,2048.0,0.0,0.0,0.0,0.0,0.0,0.0,0.0,0.0,0.0,0.0,0.0,0.0,0.0,0.0,0.0,0.0,0.0,0.0
47.0,0.0,4209.743589743592,4185.128205128207,4196.923076923078,4184.102564102565,4188.20512820513,4182.051282051283,4163.076923076925,4163.589743589745,4161.538461538463,4183.589743589745,4122.051282051283,4214.3589743589755,4235.897435897437,4194.871794871797,0.0,2047.0,2048.0,0.0,0.0,0.0,0.0,0.0,0.0,0.0,0.0,0.0,0.0,0.0,0.0,0.0,0.0,0.0,0.0,0.0,0.0
48.0,0.0,4207.179487179489,4177.435897435899,4200.000000000002,4187.692307692309,4187.692307692309,4190.256410256412,4174.3589743589755,4171.794871794873,4166.666666666668,4189.23076923077,4140.512820512822,4220.512820512822,4225.641025641027,4194.871794871797,0.0,2047.0,2048.0,0.0,0.0,0.0,0.0,0.0,0.0,0.0,0.0,0.0,0.0,0.0,0.0,0.0,0.0,0.0,0.0,0.0,0.0
49.0,0.0,4207.179487179489,4187.179487179489,4197.94871794872,4197.94871794872,4185.641025641027,4191.794871794873,4178.46153846154,4181.538461538463,4172.307692307694,4193.333333333335,4161.538461538463,4217.435897435899,4227.179487179489,4194.3589743589755,0.0,2047.0,2048.0,0.0,0.0,0.0,0.0,0.0,0.0,0.0,0.0,0.0,0.0,0.0,0.0,0.0,0.0,0.0,0.0,0.0,0.0
50.0,0.0,4226.153846153848,4191.794871794873,4219.487179487181,4193.333333333335,4187.179487179489,4183.076923076925,4165.128205128207,4178.46153846154,4168.71794871795,4186.153846153848,4151.794871794873,4229.743589743592,4235.897435897437,4217.94871794872,0.0,2047.0,2048.0,0.0,0.0,0.0,0.0,0.0,0.0,0.0,0.0,0.0,0.0,0.0,0.0,0.0,0.0,0.0,0.0,0.0,0.0
51.0,0.0,4227.179487179489,4175.897435897437,4221.0256410256425,4185.641025641027,4185.641025641027,4184.102564102565,4169.23076923077,4184.615384615386,4172.307692307694,4184.102564102565,4153.333333333335,4223.589743589745,4236.410256410258,4222.564102564104,0.0,2047.0,2048.0,0.0,0.0,0.0,0.0,0.0,0.0,0.0,0.0,0.0,0.0,0.0,0.0,0.0,0.0,0.0,0.0,0.0,0.0
52.0,0.0,4207.179487179489,4173.333333333335,4203.589743589745,4187.179487179489,4186.153846153848,4188.20512820513,4182.564102564104,4193.333333333335,4176.410256410258,4188.20512820513,4180.512820512822,4212.307692307694,4233.846153846155,4195.897435897437,0.0,2047.0,2048.0,0.0,0.0,0.0,0.0,0.0,0.0,0.0,0.0,0.0,0.0,0.0,0.0,0.0,0.0,0.0,0.0,0.0,0.0
53.0,0.0,4194.3589743589755,4177.94871794872,4194.3589743589755,4191.282051282053,4188.71794871795,4186.153846153848,4176.410256410258,4191.282051282053,4172.8205128205145,4186.666666666668,4188.20512820513,4211.794871794873,4229.743589743592,4181.0256410256425,0.0,2047.0,2048.0,0.0,0.0,0.0,0.0,0.0,0.0,0.0,0.0,0.0,0.0,0.0,0.0,0.0,0.0,0.0,0.0,0.0,0.0
54.0,0.0,4200.512820512822,4167.179487179489,4201.0256410256425,4200.512820512822,4188.20512820513,4184.615384615386,4168.20512820513,4186.153846153848,4171.794871794873,4185.128205128207,4173.846153846155,4215.897435897437,4232.307692307694,4194.3589743589755,0.0,2047.0,2048.0,0.0,0.0,0.0,0.0,0.0,0.0,0.0,0.0,0.0,0.0,0.0,0.0,0.0,0.0,0.0,0.0,0.0,0.0
55.0,0.0,4212.8205128205145,4167.692307692309,4217.94871794872,4192.8205128205145,4186.666666666668,4187.692307692309,4180.512820512822,4188.20512820513,4178.46153846154,4186.666666666668,4173.846153846155,4229.743589743592,4231.794871794873,4213.333333333335,0.0,2047.0,2048.0,0.0,0.0,0.0,0.0,0.0,0.0,0.0,0.0,0.0,0.0,0.0,0.0,0.0,0.0,0.0,0.0,0.0,0.0
56.0,0.0,4202.051282051283,4181.0256410256425,4201.538461538463,4175.897435897437,4183.589743589745,4190.769230769232,4184.102564102565,4189.743589743592,4181.538461538463,4187.179487179489,4193.846153846155,4220.000000000002,4225.641025641027,4202.564102564104,0.0,2047.0,2048.0,0.0,0.0,0.0,0.0,0.0,0.0,0.0,0.0,0.0,0.0,0.0,0.0,0.0,0.0,0.0,0.0,0.0,0.0
57.0,0.0,4198.46153846154,4189.23076923077,4194.3589743589755,4203.076923076925,4187.179487179489,4192.8205128205145,4173.846153846155,4182.564102564104,4179.487179487181,4187.692307692309,4226.666666666668,4211.282051282053,4246.153846153848,4190.256410256412,0.0,2047.0,2048.0,0.0,0.0,0.0,0.0,0.0,0.0,0.0,0.0,0.0,0.0,0.0,0.0,0.0,0.0,0.0,0.0,0.0,0.0
58.0,0.0,4215.384615384617,4188.20512820513,4221.0256410256425,4232.307692307694,4187.692307692309,4191.794871794873,4175.384615384617,4183.076923076925,4182.051282051283,4186.153846153848,4252.307692307694,4223.076923076925,4285.128205128207,4217.435897435899,0.0,2047.0,2048.0,0.0,0.0,0.0,0.0,0.0,0.0,0.0,0.0,0.0,0.0,0.0,0.0,0.0,0.0,0.0,0.0,0.0,0.0
59.0,0.0,4209.23076923077,4156.923076923078,4215.384615384617,4206.666666666668,4184.102564102565,4185.641025641027,4180.000000000002,4196.410256410258,4185.128205128207,4185.128205128207,4234.871794871797,4227.179487179489,4277.435897435899,4227.692307692309,0.0,2047.0,2048.0,0.0,0.0,0.0,0.0,0.0,0.0,0.0,0.0,0.0,0.0,0.0,0.0,0.0,0.0,0.0,0.0,0.0,0.0
60.0,0.0,4180.000000000002,4108.71794871795,4182.564102564104,4180.000000000002,4186.153846153848,4185.128205128207,4175.384615384617,4197.94871794872,4181.538461538463,4186.666666666668,4210.769230769232,4218.97435897436,4243.076923076925,4182.051282051283,0.0,2047.0,2048.0,0.0,0.0,0.0,0.0,0.0,0.0,0.0,0.0,0.0,0.0,0.0,0.0,0.0,0.0,0.0,0.0,0.0,0.0
61.0,0.0,4170.256410256412,4085.641025641027,4175.384615384617,4182.564102564104,4184.102564102565,4198.97435897436,4186.153846153848,4194.871794871797,4182.051282051283,4185.641025641027,4226.666666666668,4205.641025641027,4254.871794871797,4160.000000000002,0.0,2047.0,2048.0,0.0,0.0,0.0,0.0,0.0,0.0,0.0,0.0,0.0,0.0,0.0,0.0,0.0,0.0,0.0,0.0,0.0,0.0
62.0,0.0,4181.0256410256425,4086.1538461538476,4190.769230769232,4185.641025641027,4184.102564102565,4207.179487179489,4206.153846153848,4209.743589743592,4194.3589743589755,4185.641025641027,4250.256410256412,4215.384615384617,4275.384615384617,4188.20512820513,0.0,2047.0,2048.0,0.0,0.0,0.0,0.0,0.0,0.0,0.0,0.0,0.0,0.0,0.0,0.0,0.0,0.0,0.0,0.0,0.0,0.0
63.0,0.0,4175.897435897437,4079.487179487181,4188.20512820513,4191.282051282053,4184.615384615386,4193.333333333335,4192.307692307694,4208.20512820513,4195.384615384617,4186.666666666668,4246.666666666668,4219.487179487181,4259.487179487181,4188.20512820513,0.0,2047.0,2048.0,0.0,0.0,0.0,0.0,0.0,0.0,0.0,0.0,0.0,0.0,0.0,0.0,0.0,0.0,0.0,0.0,0.0,0.0
64.0,0.0,4168.71794871795,4064.615384615386,4184.102564102565,4198.97435897436,4184.102564102565,4180.000000000002,4164.615384615386,4174.3589743589755,4178.97435897436,4184.615384615386,4237.435897435899,4205.128205128207,4253.333333333335,4169.743589743592,685.0,2047.0,2048.0,0.0,0.0,0.0,0.0,4.0,0.0,0.0,0.0,0.0,0.0,0.0,0.0,0.0,0.0,0.0,0.0,4.0,4.0
65.0,0.0,4178.46153846154,4054.358974358976,4197.435897435899,4198.97435897436,4186.666666666668,4182.051282051283,4169.23076923077,4171.282051282053,4182.051282051283,4185.641025641027,4242.051282051283,4214.871794871797,4272.307692307694,4181.0256410256425,831.0,2047.0,2048.0,0.0,0.0,0.0,0.0,4.0,4.0,0.0,0.0,0.0,0.0,0.0,0.0,0.0,0.0,0.0,0.0,4.0,4.0
66.0,0.0,4194.3589743589755,4053.846153846155,4210.256410256412,4203.589743589745,4185.128205128207,4187.179487179489,4187.692307692309,4203.076923076925,4200.000000000002,4187.692307692309,4252.8205128205145,4225.128205128207,4281.538461538463,4200.512820512822,806.0,2047.0,2048.0,0.0,0.0,4.0,0.0,4.0,4.0,0.0,0.0,0.0,0.0,0.0,0.0,0.0,0.0,0.0,0.0,4.0,4.0
67.0,0.0,4191.794871794873,4050.256410256412,4206.153846153848,4209.23076923077,4184.615384615386,4189.743589743592,4184.615384615386,4200.000000000002,4202.564102564104,4185.128205128207,4250.256410256412,4220.512820512822,4263.589743589745,4191.794871794873,794.0,2047.0,2048.0,0.0,0.0,4.0,4.0,4.0,4.0,0.0,0.0,0.0,0.0,0.0,0.0,0.0,0.0,0.0,0.0,4.0,4.0
68.0,0.0,4169.23076923077,4034.358974358976,4181.538461538463,4202.564102564104,4184.615384615386,4187.179487179489,4178.46153846154,4184.102564102565,4196.410256410258,4188.71794871795,4235.384615384617,4215.384615384617,4244.102564102565,4172.307692307694,0.0,2047.0,2048.0,0.0,0.0,4.0,4.0,4.0,4.0,0.0,0.0,0.0,0.0,0.0,0.0,0.0,0.0,0.0,0.0,4.0,4.0
68.0,0.0,4169.23076923077,4034.358974358976,4181.538461538463,4202.564102564104,4184.615384615386,4187.179487179489,4178.46153846154,4184.102564102565,4196.410256410258,4188.71794871795,4235.384615384617,4215.384615384617,4244.102564102565,4172.307692307694,0.0,2047.0,2048.0,0.0,0.0,4.0,4.0,4.0,4.0,0.0,0.0,0.0,0.0,0.0,0.0,0.0,0.0,0.0,0.0,4.0,4.0
69.0,0.0,4170.769230769232,4032.3076923076937,4183.076923076925,4201.0256410256425,4181.0256410256425,4184.615384615386,4186.153846153848,4201.0256410256425,4201.538461538463,4192.307692307694,4245.641025641027,4214.871794871797,4250.769230769232,4180.512820512822,784.0,2047.0,2048.0,0.0,0.0,4.0,4.0,4.0,4.0,0.0,4.0,0.0,0.0,0.0,0.0,0.0,0.0,0.0,0.0,4.0,4.0
70.0,0.0,4189.23076923077,4035.384615384617,4207.692307692309,4215.897435897437,4184.102564102565,4185.128205128207,4183.589743589745,4206.666666666668,4204.615384615386,4188.20512820513,4265.128205128207,4226.153846153848,4265.128205128207,4198.46153846154,799.0,2047.0,2048.0,0.0,0.0,4.0,4.0,4.0,4.0,0.0,4.0,4.0,0.0,0.0,0.0,0.0,0.0,0.0,0.0,4.0,4.0
71.0,0.0,4179.487179487181,4018.9743589743603,4195.897435897437,4230.256410256412,4184.615384615386,4186.153846153848,4176.410256410258,4183.589743589745,4197.94871794872,4184.102564102565,4253.333333333335,4216.923076923078,4253.333333333335,4186.153846153848,809.0,2047.0,2048.0,0.0,0.0,4.0,4.0,4.0,4.0,0.0,4.0,4.0,4.0,0.0,0.0,0.0,0.0,0.0,0.0,4.0,4.0
72.0,0.0,4163.589743589745,4003.0769230769247,4179.487179487181,4239.487179487181,4181.538461538463,4189.23076923077,4184.615384615386,4180.000000000002,4195.384615384617,4186.153846153848,4233.846153846155,4206.666666666668,4233.333333333335,4170.769230769232,626.0,2047.0,2048.0,0.0,0.0,4.0,4.0,4.0,4.0,0.0,4.0,4.0,4.0,4.0,0.0,0.0,0.0,0.0,0.0,4.0,4.0
73.0,0.0,4172.307692307694,4000.0000000000014,4189.23076923077,4244.102564102565,4183.076923076925,4195.897435897437,4188.71794871795,4194.3589743589755,4200.000000000002,4187.179487179489,4245.641025641027,4220.000000000002,4240.512820512822,4184.102564102565,0.0,2047.0,2048.0,0.0,0.0,4.0,4.0,4.0,4.0,0.0,4.0,4.0,4.0,4.0,0.0,0.0,0.0,0.0,0.0,4.0,4.0
74.0,0.0,4181.538461538463,3991.7948717948734,4190.769230769232,4221.0256410256425,4184.102564102565,4196.923076923078,4180.000000000002,4201.0256410256425,4204.102564102565,4185.128205128207,4265.128205128207,4217.94871794872,4263.589743589745,4194.871794871797,856.0,2047.0,2048.0,0.0,0.0,4.0,4.0,4.0,4.0,0.0,4.0,4.0,4.0,4.0,0.0,0.0,0.0,4.0,0.0,4.0,4.0
75.0,0.0,4181.0256410256425,3979.487179487181,4195.897435897437,4245.128205128207,4186.153846153848,4194.3589743589755,4188.71794871795,4208.20512820513,4205.128205128207,4186.666666666668,4250.769230769232,4216.923076923078,4257.94871794872,4191.282051282053,821.0,2047.0,2048.0,0.0,0.0,4.0,4.0,4.0,4.0,0.0,4.0,4.0,4.0,4.0,0.0,0.0,0.0,4.0,4.0,4.0,4.0
76.0,0.0,4173.333333333335,3967.692307692309,4192.8205128205145,4229.23076923077,4183.589743589745,4197.435897435899,4201.538461538463,4209.23076923077,4200.512820512822,4187.692307692309,4228.71794871795,4216.410256410258,4223.589743589745,4180.512820512822,850.0,2047.0,2048.0,0.0,0.0,4.0,4.0,4.0,4.0,0.0,4.0,4.0,4.0,4.0,0.0,4.0,0.0,4.0,4.0,4.0,4.0
77.0,0.0,4163.076923076925,3950.7692307692323,4177.94871794872,3974.8717948717963,4183.589743589745,4202.564102564104,4192.8205128205145,4195.384615384617,4197.94871794872,4187.179487179489,4232.307692307694,4209.743589743592,4213.333333333335,4172.307692307694,336.0,2047.0,2048.0,0.0,0.0,4.0,4.0,4.0,4.0,0.0,4.0,4.0,4.0,4.0,0.0,4.0,4.0,4.0,4.0,4.0,4.0
78.0,0.0,4167.692307692309,3945.641025641027,4181.0256410256425,3706.6666666666683,4186.666666666668,4202.051282051283,4178.46153846154,4187.179487179489,4197.94871794872,4186.666666666668,4243.589743589745,4211.282051282053,4226.153846153848,4176.410256410258,856.0,2047.0,2048.0,0.0,0.0,4.0,4.0,4.0,4.0,0.0,4.0,4.0,4.0,4.0,0.0,4.0,4.0,4.0,4.0,4.0,4.0
79.0,0.0,4174.871794871797,3956.9230769230785,4188.20512820513,3705.1282051282064,4183.076923076925,4194.871794871797,4171.794871794873,4180.000000000002,4190.256410256412,4184.615384615386,4236.410256410258,4208.20512820513,4221.538461538463,4178.97435897436,821.0,2047.0,2048.0,0.0,0.0,4.0,4.0,4.0,4.0,0.0,4.0,4.0,4.0,4.0,0.0,4.0,4.0,4.0,4.0,4.0,4.0
80.0,0.0,4169.743589743592,3953.333333333335,4187.692307692309,3768.71794871795,4182.564102564104,4194.3589743589755,4175.897435897437,4173.846153846155,4183.076923076925,4185.128205128207,4224.615384615386,4211.794871794873,4207.179487179489,4171.794871794873,850.0,2047.0,2048.0,0.0,0.0,4.0,4.0,4.0,4.0,0.0,4.0,4.0,4.0,4.0,0.0,4.0,4.0,4.0,4.0,4.0,4.0
81.0,0.0,4158.97435897436,3933.846153846155,4177.94871794872,3725.1282051282064,4182.051282051283,4202.051282051283,4187.692307692309,4192.307692307694,4193.846153846155,4190.256410256412,4227.692307692309,4209.23076923077,4203.589743589745,4163.076923076925,336.0,2047.0,2048.0,0.0,0.0,4.0,4.0,4.0,4.0,0.0,4.0,4.0,4.0,4.0,0.0,4.0,4.0,4.0,4.0,4.0,4.0
82.0,0.0,4164.102564102565,3937.435897435899,4173.333333333335,3734.358974358976,4181.538461538463,4201.538461538463,4187.179487179489,4205.641025641027,4204.102564102565,4192.8205128205145,4233.846153846155,4204.102564102565,4206.666666666668,4166.153846153848,856.0,2047.0,2048.0,0.0,0.0,4.0,4.0,4.0,4.0,0.0,4.0,4.0,4.0,4.0,0.0,4.0,4.0,4.0,4.0,4.0,4.0
83.0,0.0,4178.46153846154,3960.0000000000014,4189.23076923077,3787.6923076923094,4184.615384615386,4200.000000000002,4179.487179487181,4193.333333333335,4201.0256410256425,4186.666666666668,4240.512820512822,4212.307692307694,4215.897435897437,4180.512820512822,821.0,2047.0,2048.0,0.0,0.0,4.0,4.0,4.0,4.0,0.0,4.0,4.0,4.0,4.0,0.0,4.0,4.0,4.0,4.0,4.0,4.0
84.0,0.0,4176.923076923078,3961.5384615384633,4198.46153846154,3777.9487179487196,4182.051282051283,4207.179487179489,4190.769230769232,4194.871794871797,4198.97435897436,4183.076923076925,4240.512820512822,4208.71794871795,4215.384615384617,4181.0256410256425,850.0,2047.0,2048.0,0.0,0.0,4.0,4.0,4.0,4.0,0.0,4.0,4.0,4.0,4.0,0.0,4.0,4.0,4.0,4.0,4.0,4.0
85.0,0.0,4173.333333333335,3953.846153846155,4193.333333333335,3781.0256410256425,4182.051282051283,4208.20512820513,4203.589743589745,4205.641025641027,4202.051282051283,4186.666666666668,4232.8205128205145,4209.23076923077,4203.589743589745,4173.846153846155,336.0,2047.0,2048.0,0.0,0.0,4.0,4.0,4.0,4.0,0.0,4.0,4.0,4.0,4.0,0.0,4.0,4.0,4.0,4.0,4.0,4.0
86.0,0.0,4179.487179487181,3957.9487179487196,4184.102564102565,3800.512820512822,4183.589743589745,4198.46153846154,4186.153846153848,4191.794871794873,4195.384615384617,4187.692307692309,4230.769230769232,4208.20512820513,4205.641025641027,4177.94871794872,856.0,2047.0,2048.0,0.0,0.0,4.0,4.0,4.0,4.0,0.0,4.0,4.0,4.0,4.0,0.0,4.0,4.0,4.0,4.0,4.0,4.0
87.0,0.0,4181.0256410256425,3964.615384615386,4185.128205128207,3798.9743589743607,4183.076923076925,4194.3589743589755,4167.179487179489,4171.282051282053,4184.102564102565,4183.589743589745,4231.794871794873,4201.0256410256425,4209.23076923077,4177.94871794872,821.0,2047.0,2048.0,0.0,0.0,4.0,4.0,4.0,4.0,0.0,4.0,4.0,4.0,4.0,0.0,4.0,4.0,4.0,4.0,4.0,4.0
88.0,0.0,4182.051282051283,3961.5384615384633,4193.846153846155,3803.0769230769247,4183.076923076925,4201.0256410256425,4177.435897435899,4180.000000000002,4189.23076923077,4186.666666666668,4232.8205128205145,4208.71794871795,4201.0256410256425,4174.3589743589755,850.0,2047.0,2048.0,0.0,0.0,4.0,4.0,4.0,4.0,0.0,4.0,4.0,4.0,4.0,0.0,4.0,4.0,4.0,4.0,4.0,4.0
89.0,0.0,4201.538461538463,3969.230769230771,4201.538461538463,3816.9230769230785,4180.512820512822,4203.076923076925,4190.769230769232,4195.384615384617,4203.589743589745,4191.282051282053,4241.538461538463,4213.846153846155,4211.282051282053,4197.94871794872,336.0,2047.0,2048.0,0.0,0.0,4.0,4.0,4.0,4.0,0.0,4.0,4.0,4.0,4.0,0.0,4.0,4.0,4.0,4.0,4.0,4.0
90.0,0.0,4219.487179487181,3991.2820512820526,4208.71794871795,3818.9743589743607,4183.076923076925,4201.0256410256425,4186.153846153848,4194.3589743589755,4204.615384615386,4189.23076923077,4255.897435897437,4217.435897435899,4231.794871794873,4219.487179487181,856.0,2047.0,2048.0,0.0,0.0,4.0,4.0,4.0,4.0,0.0,4.0,4.0,4.0,4.0,0.0,4.0,4.0,4.0,4.0,4.0,4.0
91.0,0.0,4217.435897435899,3991.7948717948734,4205.641025641027,3833.333333333335,4185.128205128207,4200.000000000002,4179.487179487181,4184.615384615386,4192.307692307694,4185.641025641027,4244.102564102565,4213.333333333335,4222.051282051283,4210.769230769232,821.0,2047.0,2048.0,0.0,0.0,4.0,4.0,4.0,4.0,0.0,4.0,4.0,4.0,4.0,0.0,4.0,4.0,4.0,4.0,4.0,4.0
92.0,0.0,4233.333333333335,3981.5384615384633,4213.846153846155,3861.5384615384633,4183.076923076925,4198.46153846154,4182.564102564104,4186.153846153848,4185.128205128207,4184.615384615386,4223.589743589745,4209.743589743592,4212.307692307694,4213.333333333335,850.0,2047.0,2048.0,0.0,0.0,4.0,4.0,4.0,4.0,0.0,4.0,4.0,4.0,4.0,0.0,4.0,4.0,4.0,4.0,4.0,4.0
93.0,0.0,4274.3589743589755,3998.9743589743607,4241.538461538463,3866.1538461538476,4185.641025641027,4198.97435897436,4191.282051282053,4192.8205128205145,4189.23076923077,4187.692307692309,4244.102564102565,4218.97435897436,4236.410256410258,4239.487179487181,336.0,2047.0,2048.0,0.0,0.0,4.0,4.0,4.0,4.0,0.0,4.0,4.0,4.0,4.0,0.0,4.0,4.0,4.0,4.0,4.0,4.0
94.0,0.0,4302.564102564104,4018.46153846154,4249.743589743592,3870.256410256412,4184.615384615386,4196.410256410258,4185.128205128207,4177.435897435899,4189.743589743592,4190.769230769232,4268.20512820513,4214.3589743589755,4257.435897435899,4256.923076923078,856.0,2047.0,2048.0,0.0,0.0,4.0,4.0,4.0,4.0,0.0,4.0,4.0,4.0,4.0,0.0,4.0,4.0,4.0,4.0,4.0,4.0
95.0,0.0,4320.000000000002,4016.4102564102577,4246.666666666668,3897.9487179487196,4184.102564102565,4187.692307692309,4166.666666666668,4164.102564102565,4184.102564102565,4190.256410256412,4253.333333333335,4215.384615384617,4254.3589743589755,4264.615384615386,821.0,2047.0,2048.0,0.0,0.0,4.0,4.0,4.0,4.0,0.0,4.0,4.0,4.0,4.0,0.0,4.0,4.0,4.0,4.0,4.0,4.0
96.0,0.0,4337.435897435899,4022.564102564104,4253.846153846155,3913.846153846155,4183.076923076925,4181.0256410256425,4165.128205128207,4175.384615384617,4183.589743589745,4187.179487179489,4242.051282051283,4222.051282051283,4251.282051282053,4278.97435897436,850.0,2047.0,2048.0,0.0,0.0,4.0,4.0,4.0,4.0,0.0,4.0,4.0,4.0,4.0,0.0,4.0,4.0,4.0,4.0,4.0,4.0
97.0,0.0,4339.487179487181,4029.743589743591,4255.897435897437,3905.641025641027,4181.0256410256425,4181.538461538463,4168.71794871795,4178.46153846154,4186.666666666668,4187.179487179489,4262.051282051283,4215.384615384617,4254.3589743589755,4290.769230769232,336.0,2047.0,2048.0,0.0,0.0,4.0,4.0,4.0,4.0,0.0,4.0,4.0,4.0,4.0,0.0,4.0,4.0,4.0,4.0,4.0,4.0
98.0,0.0,4333.846153846155,4012.3076923076937,4257.94871794872,3920.0000000000014,4184.615384615386,4183.589743589745,4160.512820512822,4162.051282051283,4183.076923076925,4187.692307692309,4274.3589743589755,4221.0256410256425,4257.94871794872,4292.8205128205145,856.0,2047.0,2048.0,0.0,0.0,4.0,4.0,4.0,4.0,0.0,4.0,4.0,4.0,4.0,0.0,4.0,4.0,4.0,4.0,4.0,4.0
99.0,0.0,4333.333333333335,4000.0000000000014,4256.923076923078,3956.9230769230785,4184.615384615386,4190.256410256412,4169.23076923077,4173.846153846155,4190.256410256412,4184.615384615386,4266.666666666668,4223.076923076925,4264.102564102565,4289.743589743592,821.0,2047.0,2048.0,0.0,0.0,4.0,4.0,4.0,4.0,0.0,4.0,4.0,4.0,4.0,0.0,4.0,4.0,4.0,4.0,4.0,4.0
100.0,0.0,4329.743589743592,4004.102564102566,4250.769230769232,3962.0512820512836,4183.589743589745,4198.46153846154,4192.307692307694,4203.589743589745,4207.692307692309,4185.128205128207,4263.589743589745,4222.564102564104,4261.0256410256425,4284.615384615386,850.0,2047.0,2048.0,0.0,0.0,4.0,4.0,4.0,4.0,0.0,4.0,4.0,4.0,4.0,0.0,4.0,4.0,4.0,4.0,4.0,4.0
101.0,0.0,4315.897435897437,3992.3076923076937,4247.179487179489,3948.71794871795,4183.076923076925,4200.000000000002,4192.8205128205145,4207.179487179489,4210.256410256412,4187.179487179489,4267.692307692309,4224.615384615386,4250.256410256412,4276.923076923078,336.0,2047.0,2048.0,0.0,0.0,4.0,4.0,4.0,4.0,0.0,4.0,4.0,4.0,4.0,0.0,4.0,4.0,4.0,4.0,4.0,4.0
102.0,0.0,4293.333333333335,3972.3076923076937,4236.923076923078,3962.0512820512836,4181.0256410256425,4198.46153846154,4184.615384615386,4201.0256410256425,4202.564102564104,4186.666666666668,4265.128205128207,4216.410256410258,4242.051282051283,4262.564102564104,856.0,2047.0,2048.0,0.0,0.0,4.0,4.0,4.0,4.0,0.0,4.0,4.0,4.0,4.0,0.0,4.0,4.0,4.0,4.0,4.0,4.0
103.0,0.0,4286.153846153848,3973.333333333335,4240.000000000002,3980.0000000000014,4185.641025641027,4200.000000000002,4185.641025641027,4192.307692307694,4200.512820512822,4185.641025641027,4263.589743589745,4223.076923076925,4237.94871794872,4256.923076923078,821.0,2047.0,2048.0,0.0,0.0,4.0,4.0,4.0,4.0,0.0,4.0,4.0,4.0,4.0,0.0,4.0,4.0,4.0,4.0,4.0,4.0
104.0,0.0,4275.384615384617,3968.2051282051298,4236.410256410258,3970.256410256412,4183.076923076925,4203.589743589745,4188.20512820513,4184.615384615386,4200.000000000002,4185.641025641027,4262.564102564104,4221.538461538463,4230.256410256412,4248.20512820513,850.0,2047.0,2048.0,0.0,0.0,4.0,4.0,4.0,4.0,0.0,4.0,4.0,4.0,4.0,0.0,4.0,4.0,4.0,4.0,4.0,4.0
105.0,0.0,4246.666666666668,3943.589743589745,4217.94871794872,3966.6666666666683,4180.000000000002,4201.538461538463,4185.641025641027,4194.871794871797,4197.435897435899,4187.179487179489,4250.256410256412,4211.282051282053,4211.794871794873,4229.743589743592,336.0,2047.0,2048.0,0.0,0.0,4.0,4.0,4.0,4.0,0.0,4.0,4.0,4.0,4.0,0.0,4.0,4.0,4.0,4.0,4.0,4.0
106.0,0.0,4232.8205128205145,3927.1794871794887,4216.923076923078,3982.564102564104,4184.615384615386,4197.94871794872,4186.153846153848,4198.97435897436,4200.000000000002,4186.666666666668,4243.076923076925,4215.897435897437,4200.512820512822,4222.051282051283,856.0,2047.0,2048.0,0.0,0.0,4.0,4.0,4.0,4.0,0.0,4.0,4.0,4.0,4.0,0.0,4.0,4.0,4.0,4.0,4.0,4.0
107.0,0.0,4232.307692307694,3934.358974358976,4223.589743589745,3994.358974358976,4185.641025641027,4207.179487179489,4201.0256410256425,4195.897435897437,4205.641025641027,4183.589743589745,4241.538461538463,4214.871794871797,4199.487179487181,4222.564102564104,821.0,2047.0,2048.0,0.0,0.0,4.0,4.0,4.0,4.0,0.0,4.0,4.0,4.0,4.0,0.0,4.0,4.0,4.0,4.0,4.0,4.0
108.0,0.0,4222.564102564104,3944.615384615386,4215.897435897437,3993.333333333335,4183.076923076925,4215.384615384617,4207.179487179489,4196.410256410258,4200.512820512822,4184.102564102565,4229.23076923077,4217.435897435899,4185.128205128207,4223.589743589745,850.0,2047.0,2048.0,0.0,0.0,4.0,4.0,4.0,4.0,0.0,4.0,4.0,4.0,4.0,0.0,4.0,4.0,4.0,4.0,4.0,4.0
109.0,0.0,4201.538461538463,3933.846153846155,4194.3589743589755,3983.589743589745,4178.46153846154,4211.282051282053,4192.8205128205145,4188.20512820513,4196.923076923078,4191.282051282053,4226.666666666668,4212.307692307694,4172.8205128205145,4207.692307692309,336.0,2047.0,2048.0,0.0,0.0,4.0,4.0,4.0,4.0,0.0,4.0,4.0,4.0,4.0,0.0,4.0,4.0,4.0,4.0,4.0,4.0
110.0,0.0,4193.846153846155,3923.0769230769247,4201.0256410256425,3983.589743589745,4181.538461538463,4214.3589743589755,4200.512820512822,4195.897435897437,4209.743589743592,4192.307692307694,4240.000000000002,4211.282051282053,4187.692307692309,4199.487179487181,856.0,2047.0,2048.0,0.0,0.0,4.0,4.0,4.0,4.0,0.0,4.0,4.0,4.0,4.0,0.0,4.0,4.0,4.0,4.0,4.0,4.0
111.0,0.0,4193.846153846155,3923.589743589745,4214.871794871797,4005.641025641027,4185.128205128207,4217.435897435899,4211.282051282053,4212.8205128205145,4214.3589743589755,4185.128205128207,4244.102564102565,4219.487179487181,4189.23076923077,4207.179487179489,821.0,2047.0,2048.0,0.0,0.0,4.0,4.0,4.0,4.0,0.0,4.0,4.0,4.0,4.0,0.0,4.0,4.0,4.0,4.0,4.0,4.0
112.0,0.0,4170.256410256412,3917.9487179487196,4188.20512820513,4015.384615384617,4180.000000000002,4203.076923076925,4191.794871794873,4201.538461538463,4196.923076923078,4183.589743589745,4244.615384615386,4205.128205128207,4162.051282051283,4185.641025641027,850.0,2047.0,2048.0,0.0,0.0,4.0,4.0,4.0,4.0,0.0,4.0,4.0,4.0,4.0,0.0,4.0,4.0,4.0,4.0,4.0,4.0
113.0,0.0,4154.871794871797,3916.4102564102577,4182.051282051283,4007.692307692309,4180.512820512822,4200.000000000002,4188.20512820513,4200.000000000002,4197.435897435899,4187.179487179489,4251.794871794873,4205.641025641027,4154.3589743589755,4165.128205128207,336.0,2047.0,2048.0,0.0,0.0,4.0,4.0,4.0,4.0,0.0,4.0,4.0,4.0,4.0,0.0,4.0,4.0,4.0,4.0,4.0,4.0
114.0,0.0,4164.615384615386,3914.358974358976,4201.538461538463,4005.1282051282064,4183.589743589745,4213.846153846155,4207.179487179489,4220.512820512822,4213.333333333335,4185.641025641027,4251.794871794873,4218.46153846154,4152.8205128205145,4183.076923076925,856.0,2047.0,2048.0,0.0,0.0,4.0,4.0,4.0,4.0,0.0,4.0,4.0,4.0,4.0,0.0,4.0,4.0,4.0,4.0,4.0,4.0
115.0,0.0,4162.051282051283,3903.0769230769247,4191.794871794873,4018.46153846154,4183.076923076925,4211.282051282053,4204.615384615386,4208.71794871795,4206.666666666668,4185.641025641027,4249.23076923077,4213.846153846155,4141.0256410256425,4179.487179487181,821.0,2047.0,2048.0,0.0,0.0,4.0,4.0,4.0,4.0,0.0,4.0,4.0,4.0,4.0,0.0,4.0,4.0,4.0,4.0,4.0,4.0
116.0,0.0,4151.282051282053,3904.102564102566,4180.000000000002,4028.71794871795,4183.589743589745,4204.615384615386,4196.923076923078,4190.769230769232,4196.923076923078,4186.666666666668,4251.794871794873,4206.666666666668,4151.794871794873,4159.487179487181,850.0,2047.0,2048.0,0.0,0.0,4.0,4.0,4.0,4.0,0.0,4.0,4.0,4.0,4.0,0.0,4.0,4.0,4.0,4.0,4.0,4.0
117.0,0.0,4153.846153846155,3912.8205128205145,4185.128205128207,4024.102564102566,4178.46153846154,4209.23076923077,4206.153846153848,4201.538461538463,4202.564102564104,4183.589743589745,4247.692307692309,4205.128205128207,4162.564102564104,4171.794871794873,336.0,2047.0,2048.0,0.0,0.0,4.0,4.0,4.0,4.0,0.0,4.0,4.0,4.0,4.0,0.0,4.0,4.0,4.0,4.0,4.0,4.0
118.0,0.0,4147.692307692309,3900.0000000000014,4177.435897435899,4021.0256410256425,4177.435897435899,4209.743589743592,4203.589743589745,4205.128205128207,4201.538461538463,4184.615384615386,4238.97435897436,4208.20512820513,4134.871794871797,4168.71794871795,856.0,2047.0,2048.0,0.0,0.0,4.0,4.0,4.0,4.0,0.0,4.0,4.0,4.0,4.0,0.0,4.0,4.0,4.0,4.0,4.0,4.0
119.0,0.0,4135.384615384617,3894.8717948717963,4164.615384615386,4032.8205128205145,4179.487179487181,4207.692307692309,4193.333333333335,4197.94871794872,4196.923076923078,4187.692307692309,4240.000000000002,4200.512820512822,4118.97435897436,4142.051282051283,821.0,2047.0,2048.0,0.0,0.0,4.0,4.0,4.0,4.0,0.0,4.0,4.0,4.0,4.0,0.0,4.0,4.0,4.0,4.0,4.0,4.0
120.0,0.0,4142.051282051283,3912.3076923076937,4176.410256410258,4043.589743589745,4181.538461538463,4212.8205128205145,4196.410256410258,4198.97435897436,4201.0256410256425,4187.179487179489,4240.000000000002,4196.923076923078,4135.897435897437,4147.179487179489,850.0,2047.0,2048.0,0.0,0.0,4.0,4.0,4.0,4.0,0.0,4.0,4.0,4.0,4.0,0.0,4.0,4.0,4.0,4.0,4.0,4.0
121.0,0.0,4147.692307692309,3912.3076923076937,4183.076923076925,4037.435897435899,4184.102564102565,4217.94871794872,4201.538461538463,4200.512820512822,4200.512820512822,4187.179487179489,4230.769230769232,4207.692307692309,4138.46153846154,4162.051282051283,336.0,2047.0,2048.0,0.0,0.0,4.0,4.0,4.0,4.0,0.0,4.0,4.0,4.0,4.0,0.0,4.0,4.0,4.0,4.0,4.0,4.0
122.0,0.0,4145.641025641027,3901.5384615384633,4166.666666666668,4042.0512820512836,4178.97435897436,4215.897435897437,4197.94871794872,4200.000000000002,4197.94871794872,4187.179487179489,4231.794871794873,4204.102564102565,4131.794871794873,4161.0256410256425,856.0,2047.0,2048.0,0.0,0.0,4.0,4.0,4.0,4.0,0.0,4.0,4.0,4.0,4.0,0.0,4.0,4.0,4.0,4.0,4.0,4.0
123.0,0.0,4161.0256410256425,3914.8717948717963,4172.307692307694,4060.512820512822,4178.97435897436,4210.769230769232,4190.256410256412,4201.0256410256425,4201.0256410256425,4186.153846153848,4249.23076923077,4204.615384615386,4133.846153846155,4168.71794871795,821.0,2047.0,2048.0,0.0,0.0,4.0,4.0,4.0,4.0,0.0,4.0,4.0,4.0,4.0,0.0,4.0,4.0,4.0,4.0,4.0,4.0
124.0,0.0,4176.923076923078,3931.2820512820526,4189.23076923077,4066.6666666666683,4183.076923076925,4205.128205128207,4187.692307692309,4196.923076923078,4196.923076923078,4185.641025641027,4251.282051282053,4205.641025641027,4135.897435897437,4176.923076923078,850.0,2047.0,2048.0,0.0,0.0,4.0,4.0,4.0,4.0,0.0,4.0,4.0,4.0,4.0,0.0,4.0,4.0,4.0,4.0,4.0,4.0
125.0,0.0,4189.23076923077,3936.9230769230785,4195.897435897437,4067.1794871794887,4181.538461538463,4204.102564102565,4189.23076923077,4188.71794871795,4191.282051282053,4185.641025641027,4239.487179487181,4203.076923076925,4138.46153846154,4184.615384615386,336.0,2047.0,2048.0,0.0,0.0,4.0,4.0,4.0,4.0,0.0,4.0,4.0,4.0,4.0,0.0,4.0,4.0,4.0,4.0,4.0,4.0
126.0,0.0,4221.0256410256425,3943.589743589745,4211.282051282053,4077.435897435899,4181.538461538463,4206.666666666668,4195.384615384617,4191.282051282053,4198.46153846154,4186.153846153848,4256.923076923078,4218.97435897436,4153.846153846155,4212.8205128205145,856.0,2047.0,2048.0,0.0,0.0,4.0,4.0,4.0,4.0,0.0,4.0,4.0,4.0,4.0,0.0,4.0,4.0,4.0,4.0,4.0,4.0
127.0,0.0,4251.794871794873,3961.0256410256425,4226.153846153848,4092.3076923076937,4180.000000000002,4209.743589743592,4201.0256410256425,4202.051282051283,4204.102564102565,4185.641025641027,4288.71794871795,4221.538461538463,4177.94871794872,4241.538461538463,821.0,2047.0,2048.0,0.0,0.0,4.0,4.0,4.0,4.0,0.0,4.0,4.0,4.0,4.0,0.0,4.0,4.0,4.0,4.0,4.0,4.0
128.0,0.0,4265.128205128207,3978.9743589743607,4235.384615384617,4107.692307692309,4179.487179487181,4213.846153846155,4199.487179487181,4203.589743589745,4203.589743589745,4186.666666666668,4289.743589743592,4221.0256410256425,4189.743589743592,4254.3589743589755,850.0,2047.0,2048.0,0.0,0.0,4.0,4.0,4.0,4.0,0.0,4.0,4.0,4.0,4.0,0.0,4.0,4.0,4.0,4.0,4.0,4.0
0.0,0.0,4270.256410256412,3984.102564102566,4235.384615384617,4115.384615384617,4180.000000000002,4212.307692307694,4198.46153846154,4201.538461538463,4204.615384615386,4188.20512820513,4283.076923076925,4225.128205128207,4186.666666666668,4255.897435897437,685.0,2047.0,2048.0,0.0,0.0,4.0,4.0,4.0,4.0,0.0,4.0,4.0,4.0,4.0,0.0,4.0,4.0,4.0,4.0,4.0,4.0
1.0,0.0,4264.102564102565,3982.0512820512836,4231.794871794873,4107.692307692309,4180.000000000002,4208.71794871795,4205.641025641027,4208.20512820513,4202.051282051283,4186.153846153848,4289.743589743592,4220.512820512822,4182.051282051283,4251.282051282053,834.0,2047.0,2048.0,0.0,0.0,4.0,4.0,4.0,4.0,0.0,4.0,4.0,4.0,4.0,0.0,4.0,4.0,4.0,4.0,4.0,4.0
2.0,0.0,4248.71794871795,3976.9230769230785,4237.435897435899,4106.153846153848,4182.564102564104,4209.743589743592,4206.666666666668,4215.897435897437,4205.128205128207,4187.179487179489,4289.23076923077,4224.615384615386,4173.846153846155,4246.153846153848,806.0,2047.0,2048.0,0.0,0.0,4.0,4.0,4.0,4.0,0.0,4.0,4.0,4.0,4.0,0.0,4.0,4.0,4.0,4.0,4.0,4.0
3.0,0.0,4231.282051282053,3974.358974358976,4224.102564102565,4104.102564102565,4179.487179487181,4206.153846153848,4197.94871794872,4214.3589743589755,4213.846153846155,4190.769230769232,4277.435897435899,4217.435897435899,4158.46153846154,4233.846153846155,794.0,2047.0,2048.0,0.0,0.0,4.0,4.0,4.0,4.0,0.0,4.0,4.0,4.0,4.0,0.0,4.0,4.0,4.0,4.0,4.0,4.0
4.0,0.0,4217.435897435899,3972.3076923076937,4205.128205128207,4097.435897435899,4178.97435897436,4198.97435897436,4192.8205128205145,4205.128205128207,4207.179487179489,4187.692307692309,4268.71794871795,4211.794871794873,4150.769230769232,4214.871794871797,0.0,2047.0,2048.0,0.0,0.0,4.0,4.0,4.0,4.0,0.0,4.0,4.0,4.0,4.0,0.0,4.0,4.0,4.0,4.0,4.0,4.0
5.0,0.0,4209.23076923077,3970.256410256412,4209.23076923077,4106.153846153848,4180.512820512822,4205.641025641027,4195.897435897437,4200.000000000002,4195.384615384617,4184.615384615386,4266.153846153848,4215.897435897437,4156.410256410258,4210.769230769232,784.0,2047.0,2048.0,0.0,0.0,4.0,4.0,4.0,4.0,0.0,4.0,4.0,4.0,4.0,0.0,4.0,4.0,4.0,4.0,4.0,4.0
6.0,0.0,4204.102564102565,3971.7948717948734,4217.435897435899,4112.8205128205145,4181.0256410256425,4214.3589743589755,4201.538461538463,4201.538461538463,4196.923076923078,4185.128205128207,4262.564102564104,4212.8205128205145,4153.333333333335,4213.846153846155,799.0,2047.0,2048.0,0.0,0.0,4.0,4.0,4.0,4.0,0.0,4.0,4.0,4.0,4.0,0.0,4.0,4.0,4.0,4.0,4.0,4.0
7.0,0.0,4195.897435897437,3974.358974358976,4212.307692307694,4095.384615384617,4185.128205128207,4207.692307692309,4201.538461538463,4203.589743589745,4199.487179487181,4188.20512820513,4263.589743589745,4214.871794871797,4139.487179487181,4200.000000000002,812.0,2047.0,2048.0,0.0,0.0,4.0,4.0,4.0,4.0,0.0,4.0,4.0,4.0,4.0,0.0,4.0,4.0,4.0,4.0,4.0,4.0
8.0,0.0,4178.97435897436,3974.8717948717963,4192.8205128205145,4078.9743589743603,4181.538461538463,4203.076923076925,4196.923076923078,4202.564102564104,4196.923076923078,4192.307692307694,4261.538461538463,4210.256410256412,4135.384615384617,4180.512820512822,626.0,2047.0,2048.0,0.0,0.0,4.0,4.0,4.0,4.0,0.0,4.0,4.0,4.0,4.0,0.0,4.0,4.0,4.0,4.0,4.0,4.0
9.0,0.0,4168.71794871795,3984.102564102566,4184.102564102565,4084.102564102566,4178.46153846154,4212.307692307694,4195.384615384617,4201.538461538463,4196.923076923078,4190.769230769232,4252.8205128205145,4209.743589743592,4132.8205128205145,4177.94871794872,0.0,2047.0,2048.0,0.0,0.0,4.0,4.0,4.0,4.0,0.0,4.0,4.0,4.0,4.0,0.0,4.0,4.0,4.0,4.0,4.0,4.0
10.0,0.0,4165.641025641027,4000.0000000000014,4190.769230769232,4088.71794871795,4181.538461538463,4215.384615384617,4200.000000000002,4202.051282051283,4195.384615384617,4185.641025641027,4249.23076923077,4212.307692307694,4124.102564102565,4178.97435897436,863.0,2047.0,2048.0,0.0,0.0,4.0,4.0,4.0,4.0,0.0,4.0,4.0,4.0,4.0,0.0,4.0,4.0,4.0,4.0,4.0,4.0
11.0,0.0,4158.97435897436,4010.7692307692323,4190.256410256412,4088.71794871795,4182.564102564104,4206.666666666668,4202.051282051283,4200.512820512822,4189.23076923077,4183.076923076925,4245.128205128207,4200.000000000002,4118.97435897436,4167.692307692309,822.0,2047.0,2048.0,0.0,0.0,4.0,4.0,4.0,4.0,0.0,4.0,4.0,4.0,4.0,0.0,4.0,4.0,4.0,4.0,4.0,4.0
12.0,0.0,4157.94871794872,4026.1538461538476,4187.179487179489,4090.256410256412,4183.589743589745,4202.564102564104,4192.8205128205145,4198.46153846154,4185.128205128207,4187.692307692309,4237.94871794872,4200.000000000002,4118.97435897436,4165.641025641027,864.0,2047.0,2048.0,0.0,0.0,4.0,4.0,4.0,4.0,0.0,4.0,4.0,4.0,4.0,0.0,4.0,4.0,4.0,4.0,4.0,4.0
13.0,0.0,4160.512820512822,4049.743589743591,4184.102564102565,4090.256410256412,4179.487179487181,4203.589743589745,4184.102564102565,4200.000000000002,4186.153846153848,4191.282051282053,4242.051282051283,4200.000000000002,4121.0256410256425,4173.846153846155,363.0,2047.0,2048.0,0.0,0.0,4.0,4.0,4.0,4.0,0.0,4.0,4.0,4.0,4.0,0.0,4.0,4.0,4.0,4.0,4.0,4.0
14.0,0.0,4159.487179487181,4066.6666666666683,4184.102564102565,4088.2051282051298,4180.512820512822,4203.589743589745,4186.666666666668,4198.46153846154,4188.71794871795,4189.743589743592,4245.641025641027,4198.97435897436,4123.589743589745,4174.871794871797,863.0,2047.0,2048.0,0.0,0.0,4.0,4.0,4.0,4.0,0.0,4.0,4.0,4.0,4.0,0.0,4.0,4.0,4.0,4.0,4.0,4.0
15.0,0.0,4157.94871794872,4071.7948717948734,4184.615384615386,4087.692307692309,4183.076923076925,4202.564102564104,4188.71794871795,4193.846153846155,4186.153846153848,4187.179487179489,4238.97435897436,4204.615384615386,4128.20512820513,4172.8205128205145,822.0,2047.0,2048.0,0.0,0.0,4.0,4.0,4.0,4.0,0.0,4.0,4.0,4.0,4.0,0.0,4.0,4.0,4.0,4.0,4.0,4.0
16.0,0.0,4168.20512820513,4077.9487179487196,4181.538461538463,4087.692307692309,4176.923076923078,4200.000000000002,4184.615384615386,4195.897435897437,4185.128205128207,4187.692307692309,4237.94871794872,4197.94871794872,4132.8205128205145,4175.384615384617,0.0,2047.0,2048.0,0.0,0.0,4.0,4.0,4.0,4.0,0.0,4.0,4.0,4.0,4.0,0.0,4.0,4.0,4.0,4.0,4.0,4.0
17.0,0.0,4190.256410256412,4095.8974358974374,4191.282051282053,4090.7692307692323,4179.487179487181,4205.128205128207,4187.692307692309,4202.051282051283,4187.179487179489,4187.179487179489,4240.512820512822,4202.564102564104,4137.435897435899,4185.641025641027,0.0,2047.0,2048.0,0.0,0.0,4.0,4.0,4.0,4.0,0.0,4.0,4.0,4.0,4.0,0.0,4.0,4.0,4.0,4.0,4.0,4.0
18.0,0.0,4207.179487179489,4117.435897435899,4196.923076923078,4097.94871794872,4181.538461538463,4216.923076923078,4201.538461538463,4207.179487179489,4187.692307692309,4184.615384615386,4234.3589743589755,4208.20512820513,4147.179487179489,4200.512820512822,0.0,2047.0,2048.0,0.0,0.0,4.0,4.0,4.0,4.0,0.0,4.0,4.0,4.0,4.0,0.0,4.0,4.0,4.0,4.0,4.0,4.0
19.0,0.0,4220.512820512822,4108.71794871795,4196.923076923078,4100.512820512822,4177.94871794872,4217.94871794872,4204.615384615386,4204.615384615386,4185.641025641027,4185.641025641027,4230.769230769232,4206.153846153848,4156.410256410258,4210.769230769232,0.0,2047.0,2048.0,0.0,0.0,4.0,4.0,4.0,4.0,0.0,4.0,4.0,4.0,4.0,0.0,4.0,4.0,4.0,4.0,4.0,4.0
20.0,0.0,4238.46153846154,4070.256410256412,4208.20512820513,4102.051282051283,4177.94871794872,4205.641025641027,4192.8205128205145,4191.282051282053,4180.000000000002,4186.153846153848,4231.794871794873,4208.20512820513,4155.384615384617,4217.435897435899,0.0,2047.0,2048.0,0.0,0.0,4.0,4.0,4.0,4.0,0.0,4.0,4.0,4.0,4.0,0.0,4.0,4.0,4.0,4.0,4.0,4.0
21.0,0.0,4256.410256410258,4054.358974358976,4216.923076923078,4113.846153846155,4178.46153846154,4198.46153846154,4183.076923076925,4183.076923076925,4177.435897435899,4181.538461538463,4227.179487179489,4203.076923076925,4163.076923076925,4229.23076923077,0.0,2047.0,2048.0,0.0,0.0,4.0,4.0,4.0,4.0,0.0,4.0,4.0,4.0,4.0,0.0,4.0,4.0,4.0,4.0,4.0,4.0
22.0,0.0,4273.846153846155,4075.8974358974374,4226.153846153848,4134.871794871797,4181.0256410256425,4201.0256410256425,4181.538461538463,4182.564102564104,4180.000000000002,4185.641025641027,4216.410256410258,4209.743589743592,4177.94871794872,4249.23076923077,0.0,2047.0,2048.0,0.0,0.0,4.0,4.0,4.0,4.0,0.0,4.0,4.0,4.0,4.0,0.0,4.0,4.0,4.0,4.0,4.0,4.0
23.0,0.0,4277.435897435899,4089.743589743591,4230.769230769232,4138.46153846154,4180.000000000002,4202.564102564104,4183.589743589745,4184.102564102565,4183.589743589745,4194.3589743589755,4203.076923076925,4214.3589743589755,4175.897435897437,4255.384615384617,0.0,2047.0,2048.0,0.0,0.0,4.0,4.0,4.0,4.0,0.0,4.0,4.0,4.0,4.0,0.0,4.0,4.0,4.0,4.0,4.0,4.0
24.0,0.0,4257.94871794872,4084.615384615386,4223.589743589745,4120.512820512822,4178.97435897436,4201.538461538463,4185.641025641027,4192.307692307694,4187.179487179489,4191.794871794873,4201.538461538463,4210.769230769232,4168.20512820513,4238.46153846154,0.0,2047.0,2048.0,0.0,0.0,4.0,4.0,4.0,4.0,0.0,4.0,4.0,4.0,4.0,0.0,4.0,4.0,4.0,4.0,4.0,4.0
25.0,0.0,4236.923076923078,4092.3076923076937,4214.871794871797,4105.128205128207,4180.000000000002,4199.487179487181,4183.589743589745,4187.692307692309,4181.538461538463,4183.589743589745,4201.0256410256425,4212.8205128205145,4165.641025641027,4220.000000000002,0.0,2047.0,2048.0,0.0,0.0,4.0,4.0,4.0,4.0,0.0,4.0,4.0,4.0,4.0,0.0,4.0,4.0,4.0,4.0,4.0,4.0
26.0,0.0,4227.692307692309,4103.589743589745,4208.20512820513,4107.179487179489,4177.435897435899,4197.94871794872,4182.051282051283,4173.333333333335,4171.794871794873,4184.102564102565,4178.97435897436,4208.20512820513,4154.871794871797,4223.589743589745,0.0,2047.0,2048.0,0.0,0.0,4.0,4.0,4.0,4.0,0.0,4.0,4.0,4.0,4.0,0.0,4.0,4.0,4.0,4.0,4.0,4.0
27.0,0.0,4227.179487179489,4100.512820512822,4217.94871794872,4115.384615384617,4180.512820512822,4201.0256410256425,4188.71794871795,4180.000000000002,4175.384615384617,4187.179487179489,4178.46153846154,4216.410256410258,4149.743589743592,4240.000000000002,0.0,2047.0,2048.0,0.0,0.0,4.0,4.0,4.0,4.0,0.0,4.0,4.0,4.0,4.0,0.0,4.0,4.0,4.0,4.0,4.0,4.0
28.0,0.0,4214.871794871797,4104.615384615386,4214.871794871797,4109.23076923077,4179.487179487181,4202.564102564104,4188.20512820513,4190.769230769232,4186.153846153848,4185.641025641027,4201.538461538463,4217.435897435899,4151.282051282053,4231.794871794873,0.0,2047.0,2048.0,0.0,0.0,4.0,4.0,4.0,4.0,0.0,4.0,4.0,4.0,4.0,0.0,4.0,4.0,4.0,4.0,4.0,4.0
29.0,0.0,4190.769230769232,4114.3589743589755,4189.23076923077,4103.076923076925,4175.897435897437,4200.512820512822,4182.564102564104,4183.076923076925,4184.102564102565,4184.615384615386,4187.692307692309,4200.000000000002,4138.97435897436,4192.8205128205145,0.0,2047.0,2048.0,0.0,0.0,4.0,4.0,4.0,4.0,0.0,4.0,4.0,4.0,4.0,0.0,4.0,4.0,4.0,4.0,4.0,4.0
30.0,0.0,4180.512820512822,4116.923076923078,4185.641025641027,4108.20512820513,4179.487179487181,4202.051282051283,4191.282051282053,4183.589743589745,4181.0256410256425,4185.641025641027,4169.743589743592,4198.97435897436,4133.333333333335,4168.20512820513,0.0,2047.0,2048.0,0.0,0.0,4.0,4.0,4.0,4.0,0.0,4.0,4.0,4.0,4.0,0.0,4.0,4.0,4.0,4.0,4.0,4.0
31.0,0.0,4177.435897435899,4122.051282051283,4192.307692307694,4111.282051282053,4178.97435897436,4203.589743589745,4196.923076923078,4189.23076923077,4185.641025641027,4186.153846153848,4184.615384615386,4200.000000000002,4145.128205128207,4176.410256410258,0.0,2047.0,2048.0,0.0,0.0,4.0,4.0,4.0,4.0,0.0,4.0,4.0,4.0,4.0,0.0,4.0,4.0,4.0,4.0,4.0,4.0
32.0,0.0,4163.589743589745,4137.435897435899,4183.589743589745,4101.538461538463,4178.46153846154,4202.564102564104,4186.666666666668,4182.564102564104,4184.615384615386,4186.666666666668,4176.923076923078,4201.0256410256425,4147.692307692309,4179.487179487181,0.0,2047.0,2048.0,0.0,0.0,4.0,4.0,4.0,4.0,0.0,4.0,4.0,4.0,4.0,0.0,4.0,4.0,4.0,4.0,4.0,4.0
33.0,0.0,4147.179487179489,4146.666666666668,4172.8205128205145,4094.8717948717963,4178.46153846154,4201.538461538463,4189.743589743592,4188.20512820513,4184.615384615386,4185.641025641027,4150.256410256412,4201.0256410256425,4137.94871794872,4162.051282051283,0.0,2047.0,2048.0,0.0,0.0,4.0,4.0,4.0,4.0,0.0,4.0,4.0,4.0,4.0,0.0,4.0,4.0,4.0,4.0,4.0,4.0
34.0,0.0,4143.589743589745,4146.666666666668,4173.846153846155,4102.051282051283,4179.487179487181,4200.512820512822,4204.102564102565,4199.487179487181,4193.846153846155,4186.666666666668,4168.20512820513,4198.97435897436,4147.179487179489,4154.3589743589755,0.0,2047.0,2048.0,0.0,0.0,4.0,4.0,4.0,4.0,0.0,4.0,4.0,4.0,4.0,0.0,4.0,4.0,4.0,4.0,4.0,4.0
35.0,0.0,4149.23076923077,4157.435897435899,4176.410256410258,4110.256410256412,4182.564102564104,4197.94871794872,4194.871794871797,4191.794871794873,4200.000000000002,4186.666666666668,4206.666666666668,4206.153846153848,4173.846153846155,4165.641025641027,0.0,2047.0,2048.0,0.0,0.0,4.0,4.0,4.0,4.0,0.0,4.0,4.0,4.0,4.0,0.0,4.0,4.0,4.0,4.0,4.0,4.0
36.0,0.0,4144.102564102565,4169.743589743592,4167.179487179489,4103.589743589745,4178.46153846154,4194.871794871797,4184.102564102565,4181.538461538463,4196.410256410258,4185.128205128207,4206.666666666668,4200.512820512822,4184.615384615386,4162.051282051283,0.0,2047.0,2048.0,0.0,0.0,4.0,4.0,4.0,4.0,0.0,4.0,4.0,4.0,4.0,0.0,4.0,4.0,4.0,4.0,4.0,4.0
37.0,0.0,4135.384615384617,4179.487179487181,4165.128205128207,4101.0256410256425,4177.94871794872,4198.97435897436,4195.897435897437,4194.871794871797,4197.435897435899,4184.615384615386,4200.000000000002,4200.512820512822,4189.743589743592,4149.743589743592,0.0,2047.0,2048.0,0.0,0.0,4.0,4.0,4.0,4.0,0.0,4.0,4.0,4.0,4.0,0.0,4.0,4.0,4.0,4.0,4.0,4.0
38.0,0.0,4138.97435897436,4186.666666666668,4171.794871794873,4116.923076923078,4179.487179487181,4206.666666666668,4204.615384615386,4208.20512820513,4205.641025641027,4186.153846153848,4210.769230769232,4207.692307692309,4196.923076923078,4157.94871794872,0.0,2047.0,2048.0,0.0,0.0,4.0,4.0,4.0,4.0,0.0,4.0,4.0,4.0,4.0,0.0,4.0,4.0,4.0,4.0,4.0,4.0
39.0,0.0,4145.641025641027,4196.410256410258,4180.000000000002,4120.000000000002,4178.97435897436,4205.128205128207,4202.564102564104,4192.307692307694,4203.076923076925,4187.179487179489,4213.333333333335,4201.538461538463,4197.435897435899,4165.128205128207,0.0,2047.0,2048.0,0.0,0.0,4.0,4.0,4.0,4.0,0.0,4.0,4.0,4.0,4.0,0.0,4.0,4.0,4.0,4.0,4.0,4.0
40.0,0.0,4146.153846153848,4204.102564102565,4185.641025641027,4108.20512820513,4181.538461538463,4198.46153846154,4194.871794871797,4178.46153846154,4192.8205128205145,4187.179487179489,4205.641025641027,4202.564102564104,4192.8205128205145,4157.435897435899,0.0,2047.0,2048.0,0.0,0.0,4.0,4.0,4.0,4.0,0.0,4.0,4.0,4.0,4.0,0.0,4.0,4.0,4.0,4.0,4.0,4.0
41.0,0.0,4143.076923076925,4201.0256410256425,4170.769230769232,4108.20512820513,4176.923076923078,4197.435897435899,4183.589743589745,4182.051282051283,4188.20512820513,4185.641025641027,4202.564102564104,4197.435897435899,4187.179487179489,4150.769230769232,0.0,2047.0,2048.0,0.0,0.0,4.0,4.0,4.0,4.0,0.0,4.0,4.0,4.0,4.0,0.0,4.0,4.0,4.0,4.0,4.0,4.0
42.0,0.0,4148.71794871795,4201.538461538463,4166.666666666668,4114.871794871797,4174.3589743589755,4201.0256410256425,4182.564102564104,4179.487179487181,4186.666666666668,4185.641025641027,4196.923076923078,4197.94871794872,4187.692307692309,4157.435897435899,0.0,2047.0,2048.0,0.0,0.0,4.0,4.0,4.0,4.0,0.0,4.0,4.0,4.0,4.0,0.0,4.0,4.0,4.0,4.0,4.0,4.0
43.0,0.0,4158.46153846154,4201.538461538463,4177.435897435899,4114.871794871797,4180.000000000002,4201.0256410256425,4187.692307692309,4170.256410256412,4183.589743589745,4186.666666666668,4190.769230769232,4203.076923076925,4193.333333333335,4160.000000000002,0.0,2047.0,2048.0,0.0,0.0,4.0,4.0,4.0,4.0,0.0,4.0,4.0,4.0,4.0,0.0,4.0,4.0,4.0,4.0,4.0,4.0
44.0,0.0,4171.282051282053,4198.97435897436,4176.410256410258,4113.333333333335,4180.000000000002,4200.512820512822,4185.641025641027,4172.307692307694,4186.666666666668,4184.615384615386,4204.102564102565,4194.3589743589755,4199.487179487181,4160.512820512822,0.0,2047.0,2048.0,0.0,0.0,4.0,4.0,4.0,4.0,0.0,4.0,4.0,4.0,4.0,0.0,4.0,4.0,4.0,4.0,4.0,4.0
45.0,0.0,4207.179487179489,4216.410256410258,4190.256410256412,4128.20512820513,4177.94871794872,4203.076923076925,4187.179487179489,4183.589743589745,4199.487179487181,4186.153846153848,4230.256410256412,4204.102564102565,4214.3589743589755,4193.846153846155,0.0,2047.0,2048.0,0.0,0.0,4.0,4.0,4.0,4.0,0.0,4.0,4.0,4.0,4.0,0.0,4.0,4.0,4.0,4.0,4.0,4.0
46.0,0.0,4244.102564102565,4236.410256410258,4209.743589743592,4147.179487179489,4176.923076923078,4203.589743589745,4195.897435897437,4194.871794871797,4205.641025641027,4188.71794871795,4243.076923076925,4212.307692307694,4240.000000000002,4231.282051282053,0.0,2047.0,2048.0,0.0,0.0,4.0,4.0,4.0,4.0,0.0,4.0,4.0,4.0,4.0,0.0,4.0,4.0,4.0,4.0,4.0,4.0
47.0,0.0,4257.94871794872,4240.000000000002,4220.512820512822,4153.846153846155,4181.538461538463,4201.538461538463,4198.46153846154,4195.384615384617,4200.000000000002,4186.153846153848,4245.641025641027,4212.8205128205145,4245.128205128207,4240.000000000002,0.0,2047.0,2048.0,0.0,0.0,4.0,4.0,4.0,4.0,0.0,4.0,4.0,4.0,4.0,0.0,4.0,4.0,4.0,4.0,4.0,4.0
48.0,0.0,4263.076923076925,4243.589743589745,4230.769230769232,4155.897435897437,4185.128205128207,4203.589743589745,4196.410256410258,4188.20512820513,4200.000000000002,4188.71794871795,4247.179487179489,4216.923076923078,4232.8205128205145,4238.46153846154,0.0,2047.0,2048.0,0.0,0.0,4.0,4.0,4.0,4.0,0.0,4.0,4.0,4.0,4.0,0.0,4.0,4.0,4.0,4.0,4.0,4.0
49.0,0.0,4267.692307692309,4248.20512820513,4225.128205128207,4162.051282051283,4181.538461538463,4199.487179487181,4188.71794871795,4187.179487179489,4203.076923076925,4189.743589743592,4250.769230769232,4213.846153846155,4235.384615384617,4247.179487179489,0.0,2047.0,2048.0,0.0,0.0,4.0,4.0,4.0,4.0,0.0,4.0,4.0,4.0,4.0,0.0,4.0,4.0,4.0,4.0,4.0,4.0
50.0,0.0,4269.23076923077,4242.564102564104,4216.923076923078,4160.512820512822,4181.538461538463,4186.153846153848,4176.923076923078,4183.076923076925,4198.46153846154,4187.179487179489,4255.384615384617,4220.000000000002,4237.435897435899,4258.46153846154,0.0,2047.0,2048.0,0.0,0.0,4.0,4.0,4.0,4.0,0.0,4.0,4.0,4.0,4.0,0.0,4.0,4.0,4.0,4.0,4.0,4.0
51.0,0.0,4254.871794871797,4235.384615384617,4214.3589743589755,4149.743589743592,4181.538461538463,4189.743589743592,4188.71794871795,4182.564102564104,4199.487179487181,4190.769230769232,4246.153846153848,4214.3589743589755,4219.487179487181,4247.692307692309,0.0,2047.0,2048.0,0.0,0.0,4.0,4.0,4.0,4.0,0.0,4.0,4.0,4.0,4.0,0.0,4.0,4.0,4.0,4.0,4.0,4.0
52.0,0.0,4241.538461538463,4235.897435897437,4216.923076923078,4155.384615384617,4182.051282051283,4197.94871794872,4204.102564102565,4188.71794871795,4204.102564102565,4192.307692307694,4229.743589743592,4204.615384615386,4196.923076923078,4225.641025641027,0.0,2047.0,2048.0,0.0,0.0,4.0,4.0,4.0,4.0,0.0,4.0,4.0,4.0,4.0,0.0,4.0,4.0,4.0,4.0,4.0,4.0
53.0,0.0,4239.487179487181,4235.384615384617,4217.94871794872,4168.71794871795,4182.051282051283,4188.20512820513,4188.20512820513,4182.564102564104,4200.512820512822,4185.128205128207,4231.282051282053,4212.8205128205145,4191.282051282053,4221.0256410256425,0.0,2047.0,2048.0,0.0,0.0,4.0,4.0,4.0,4.0,0.0,4.0,4.0,4.0,4.0,0.0,4.0,4.0,4.0,4.0,4.0,4.0
54.0,0.0,4223.076923076925,4229.23076923077,4202.051282051283,4159.487179487181,4179.487179487181,4181.538461538463,4172.8205128205145,4174.3589743589755,4198.46153846154,4183.076923076925,4234.3589743589755,4210.256410256412,4179.487179487181,4218.97435897436,0.0,2047.0,2048.0,0.0,0.0,4.0,4.0,4.0,4.0,0.0,4.0,4.0,4.0,4.0,0.0,4.0,4.0,4.0,4.0,4.0,4.0
55.0,0.0,4193.333333333335,4215.384615384617,4185.641025641027,4139.487179487181,4183.076923076925,4186.666666666668,4185.641025641027,4191.282051282053,4204.102564102565,4187.692307692309,4217.94871794872,4208.71794871795,4149.743589743592,4197.94871794872,0.0,2047.0,2048.0,0.0,0.0,4.0,4.0,4.0,4.0,0.0,4.0,4.0,4.0,4.0,0.0,4.0,4.0,4.0,4.0,4.0,4.0
56.0,0.0,4182.051282051283,4211.282051282053,4182.564102564104,4137.94871794872,4183.076923076925,4188.71794871795,4194.3589743589755,4204.615384615386,4204.615384615386,4186.153846153848,4213.846153846155,4209.23076923077,4138.97435897436,4187.179487179489,0.0,2047.0,2048.0,0.0,0.0,4.0,4.0,4.0,4.0,0.0,4.0,4.0,4.0,4.0,0.0,4.0,4.0,4.0,4.0,4.0,4.0
57.0,0.0,4174.871794871797,4218.97435897436,4184.615384615386,4144.102564102565,4182.051282051283,4188.20512820513,4187.179487179489,4195.897435897437,4201.0256410256425,4185.641025641027,4218.97435897436,4205.128205128207,4138.97435897436,4190.256410256412,0.0,2047.0,2048.0,0.0,0.0,4.0,4.0,4.0,4.0,0.0,4.0,4.0,4.0,4.0,0.0,4.0,4.0,4.0,4.0,4.0,4.0
58.0,0.0,4148.20512820513,4206.153846153848,4174.871794871797,4133.333333333335,4182.564102564104,4190.256410256412,4183.589743589745,4192.307692307694,4201.0256410256425,4186.666666666668,4205.128205128207,4204.102564102565,4118.97435897436,4175.897435897437,0.0,2047.0,2048.0,0.0,0.0,4.0,4.0,4.0,4.0,0.0,4.0,4.0,4.0,4.0,0.0,4.0,4.0,4.0,4.0,4.0,4.0
59.0,0.0,4127.692307692309,4191.794871794873,4157.435897435899,4126.153846153848,4182.051282051283,4183.589743589745,4179.487179487181,4185.128205128207,4193.846153846155,4185.641025641027,4195.897435897437,4198.46153846154,4099.487179487181,4154.3589743589755,0.0,2047.0,2048.0,0.0,0.0,4.0,4.0,4.0,4.0,0.0,4.0,4.0,4.0,4.0,0.0,4.0,4.0,4.0,4.0,4.0,4.0
60.0,0.0,4129.23076923077,4207.179487179489,4162.564102564104,4136.410256410258,4185.128205128207,4174.3589743589755,4170.769230769232,4167.692307692309,4180.512820512822,4186.153846153848,4197.435897435899,4203.076923076925,4100.512820512822,4152.307692307694,0.0,2047.0,2048.0,0.0,0.0,4.0,4.0,4.0,4.0,0.0,4.0,4.0,4.0,4.0,0.0,4.0,4.0,4.0,4.0,4.0,4.0
61.0,0.0,4130.256410256412,4221.538461538463,4167.692307692309,4138.97435897436,4183.589743589745,4173.846153846155,4165.128205128207,4168.20512820513,4182.564102564104,4186.153846153848,4190.256410256412,4205.641025641027,4109.23076923077,4162.051282051283,0.0,2047.0,2048.0,0.0,0.0,4.0,4.0,4.0,4.0,0.0,4.0,4.0,4.0,4.0,0.0,4.0,4.0,4.0,4.0,4.0,4.0
62.0,0.0,4128.20512820513,4217.435897435899,4162.051282051283,4137.435897435899,4181.0256410256425,4184.102564102565,4165.641025641027,4184.102564102565,4198.97435897436,4185.641025641027,4180.512820512822,4205.128205128207,4109.23076923077,4166.153846153848,0.0,2047.0,2048.0,0.0,0.0,4.0,4.0,4.0,4.0,0.0,4.0,4.0,4.0,4.0,0.0,4.0,4.0,4.0,4.0,4.0,4.0
63.0,0.0,4131.794871794873,4222.564102564104,4169.23076923077,4146.666666666668,4185.641025641027,4191.282051282053,4173.846153846155,4188.20512820513,4203.076923076925,4185.641025641027,4176.410256410258,4209.743589743592,4099.487179487181,4162.051282051283,0.0,2047.0,2048.0,0.0,0.0,4.0,4.0,4.0,4.0,0.0,4.0,4.0,4.0,4.0,0.0,4.0,4.0,4.0,4.0,4.0,4.0
64.0,0.0,4128.71794871795,4232.8205128205145,4177.94871794872,4153.846153846155,4184.102564102565,4188.71794871795,4185.641025641027,4180.512820512822,4194.871794871797,4186.153846153848,4173.333333333335,4200.000000000002,4095.384615384617,4153.333333333335,685.0,2047.0,2048.0,0.0,0.0,4.0,4.0,4.0,4.0,0.0,4.0,4.0,4.0,4.0,0.0,4.0,4.0,4.0,4.0,4.0,4.0
65.0,0.0,4118.97435897436,4222.051282051283,4177.435897435899,4136.923076923078,4183.076923076925,4185.641025641027,4183.589743589745,4179.487179487181,4191.794871794873,4185.641025641027,4167.692307692309,4203.076923076925,4094.8717948717963,4150.256410256412,833.0,2047.0,2048.0,0.0,0.0,4.0,4.0,4.0,4.0,0.0,4.0,4.0,4.0,4.0,0.0,4.0,4.0,4.0,4.0,4.0,4.0
66.0,0.0,4107.179487179489,4204.102564102565,4155.384615384617,4123.076923076925,4179.487179487181,4184.102564102565,4172.307692307694,4182.564102564104,4190.256410256412,4186.153846153848,4158.46153846154,4206.666666666668,4080.0000000000014,4145.128205128207,806.0,2047.0,2048.0,0.0,0.0,4.0,4.0,4.0,4.0,0.0,4.0,4.0,4.0,4.0,0.0,4.0,4.0,4.0,4.0,4.0,4.0
67.0,0.0,4097.94871794872,4196.410256410258,4129.23076923077,4140.512820512822,4175.384615384617,4182.051282051283,4174.871794871797,4183.589743589745,4190.256410256412,4186.153846153848,4150.256410256412,4195.384615384617,4062.564102564104,4133.333333333335,794.0,2047.0,2048.0,0.0,0.0,4.0,4.0,4.0,4.0,0.0,4.0,4.0,4.0,4.0,0.0,4.0,4.0,4.0,4.0,4.0,4.0
68.0,0.0,4102.051282051283,4198.97435897436,4143.589743589745,4126.153846153848,4180.000000000002,4189.23076923077,4187.179487179489,4187.179487179489,4198.97435897436,4185.641025641027,4155.384615384617,4201.538461538463,4061.0256410256425,4133.333333333335,0.0,2047.0,2048.0,0.0,0.0,4.0,4.0,4.0,4.0,0.0,4.0,4.0,4.0,4.0,0.0,4.0,4.0,4.0,4.0,4.0,4.0
69.0,0.0,4099.487179487181,4201.0256410256425,4162.564102564104,4155.384615384617,4184.102564102565,4194.3589743589755,4188.20512820513,4190.769230769232,4201.538461538463,4185.128205128207,4158.46153846154,4200.512820512822,4057.9487179487196,4131.794871794873,784.0,2047.0,2048.0,0.0,0.0,4.0,4.0,4.0,4.0,0.0,4.0,4.0,4.0,4.0,0.0,4.0,4.0,4.0,4.0,4.0,4.0
70.0,0.0,4085.1282051282064,4198.46153846154,4158.97435897436,4380.512820512822,4186.666666666668,4189.743589743592,4183.589743589745,4186.153846153848,4189.23076923077,4186.153846153848,4144.102564102565,4192.8205128205145,4036.4102564102577,4120.000000000002,799.0,2047.0,2048.0,0.0,0.0,4.0,4.0,4.0,4.0,0.0,4.0,4.0,4.0,4.0,0.0,4.0,4.0,4.0,4.0,4.0,4.0
71.0,0.0,4084.615384615386,4200.512820512822,4152.8205128205145,4622.051282051283,4183.589743589745,4187.179487179489,4180.512820512822,4173.333333333335,4181.538461538463,4185.641025641027,4136.923076923078,4193.846153846155,4025.641025641027,4120.000000000002,832.0,2047.0,2048.0,0.0,0.0,4.0,4.0,4.0,4.0,0.0,4.0,4.0,4.0,4.0,0.0,4.0,4.0,4.0,4.0,4.0,4.0
72.0,0.0,4098.97435897436,4212.307692307694,4145.641025641027,4655.384615384617,4176.410256410258,4184.615384615386,4167.692307692309,4173.333333333335,4185.641025641027,4186.153846153848,4142.051282051283,4195.897435897437,4038.46153846154,4131.282051282053,626.0,2047.0,2048.0,0.0,0.0,4.0,4.0,4.0,4.0,0.0,4.0,4.0,4.0,4.0,0.0,4.0,4.0,4.0,4.0,4.0,4.0
73.0,0.0,4107.692307692309,4223.589743589745,4148.71794871795,4616.410256410258,4179.487179487181,4175.897435897437,4157.94871794872,4182.051282051283,4190.256410256412,4186.666666666668,4144.102564102565,4201.0256410256425,4045.641025641027,4138.97435897436,0.0,2047.0,2048.0,0.0,0.0,4.0,4.0,4.0,4.0,0.0,4.0,4.0,4.0,4.0,0.0,4.0,4.0,4.0,4.0,4.0,4.0
74.0,0.0,4098.46153846154,4223.076923076925,4154.3589743589755,4633.333333333335,4183.076923076925,4169.23076923077,4164.102564102565,4182.051282051283,4194.3589743589755,4184.615384615386,4137.94871794872,4194.871794871797,4034.358974358976,4135.897435897437,862.0,2047.0,2048.0,0.0,0.0,4.0,4.0,4.0,4.0,0.0,4.0,4.0,4.0,4.0,0.0,4.0,4.0,4.0,4.0,4.0,4.0
75.0,0.0,4087.692307692309,4217.435897435899,4149.23076923077,4620.000000000002,4185.128205128207,4170.256410256412,4177.435897435899,4175.897435897437,4191.794871794873,4183.589743589745,4127.692307692309,4193.846153846155,4022.0512820512836,4126.666666666668,822.0,2047.0,2048.0,0.0,0.0,4.0,4.0,4.0,4.0,0.0,4.0,4.0,4.0,4.0,0.0,4.0,4.0,4.0,4.0,4.0,4.0
76.0,0.0,4090.7692307692323,4222.051282051283,4145.128205128207,4589.23076923077,4185.128205128207,4175.384615384617,4182.564102564104,4176.410256410258,4189.23076923077,4185.641025641027,4127.692307692309,4196.923076923078,4023.0769230769247,4128.20512820513,871.0,2047.0,2048.0,0.0,0.0,4.0,4.0,4.0,4.0,0.0,4.0,4.0,4.0,4.0,0.0,4.0,4.0,4.0,4.0,4.0,4.0
77.0,0.0,4100.512820512822,4232.8205128205145,4152.8205128205145,4598.97435897436,4181.538461538463,4183.076923076925,4175.897435897437,4184.615384615386,4198.97435897436,4186.153846153848,4137.94871794872,4196.410256410258,4035.8974358974374,4144.102564102565,358.0,2047.0,2048.0,0.0,0.0,4.0,4.0,4.0,4.0,0.0,4.0,4.0,4.0,4.0,0.0,4.0,4.0,4.0,4.0,4.0,4.0
78.0,0.0,4109.743589743592,4240.000000000002,4161.0256410256425,4603.076923076925,4182.564102564104,4186.666666666668,4171.794871794873,4191.282051282053,4203.589743589745,4184.615384615386,4145.641025641027,4208.71794871795,4043.589743589745,4149.743589743592,862.0,2047.0,2048.0,0.0,0.0,4.0,4.0,4.0,4.0,0.0,4.0,4.0,4.0,4.0,0.0,4.0,4.0,4.0,4.0,4.0,4.0
79.0,0.0,4108.20512820513,4237.94871794872,4147.179487179489,4587.179487179488,4183.589743589745,4182.564102564104,4171.794871794873,4183.076923076925,4189.743589743592,4184.615384615386,4136.923076923078,4203.076923076925,4028.71794871795,4134.3589743589755,822.0,2047.0,2048.0,0.0,0.0,4.0,4.0,4.0,4.0,0.0,4.0,4.0,4.0,4.0,0.0,4.0,4.0,4.0,4.0,4.0,4.0
80.0,0.0,4104.102564102565,4233.846153846155,4146.153846153848,4578.46153846154,4185.641025641027,4182.051282051283,4168.20512820513,4169.743589743592,4178.97435897436,4186.666666666668,4127.179487179489,4193.846153846155,4013.846153846155,4130.256410256412,871.0,2047.0,2048.0,0.0,0.0,4.0,4.0,4.0,4.0,0.0,4.0,4.0,4.0,4.0,0.0,4.0,4.0,4.0,4.0,4.0,4.0
81.0,0.0,4109.23076923077,4232.307692307694,4158.97435897436,4582.564102564104,4183.076923076925,4185.641025641027,4165.641025641027,4170.256410256412,4181.0256410256425,4185.641025641027,4131.282051282053,4200.000000000002,4023.0769230769247,4144.615384615386,358.0,2047.0,2048.0,0.0,0.0,4.0,4.0,4.0,4.0,0.0,4.0,4.0,4.0,4.0,0.0,4.0,4.0,4.0,4.0,4.0,4.0
82.0,0.0,4114.871794871797,4232.307692307694,4151.794871794873,4571.794871794873,4178.97435897436,4185.641025641027,4165.128205128207,4175.897435897437,4181.0256410256425,4184.615384615386,4133.846153846155,4198.46153846154,4034.8717948717963,4147.692307692309,862.0,2047.0,2048.0,0.0,0.0,4.0,4.0,4.0,4.0,0.0,4.0,4.0,4.0,4.0,0.0,4.0,4.0,4.0,4.0,4.0,4.0
83.0,0.0,4111.794871794873,4236.410256410258,4148.71794871795,4552.8205128205145,4185.128205128207,4178.46153846154,4161.538461538463,4177.435897435899,4173.333333333335,4185.128205128207,4125.641025641027,4198.97435897436,4026.6666666666683,4138.97435897436,822.0,2047.0,2048.0,0.0,0.0,4.0,4.0,4.0,4.0,0.0,4.0,4.0,4.0,4.0,0.0,4.0,4.0,4.0,4.0,4.0,4.0
84.0,0.0,4109.743589743592,4237.435897435899,4155.897435897437,4550.256410256412,4187.179487179489,4169.743589743592,4164.615384615386,4181.538461538463,4170.256410256412,4185.641025641027,4120.512820512822,4193.846153846155,4017.435897435899,4134.871794871797,871.0,2047.0,2048.0,0.0,0.0,4.0,4.0,4.0,4.0,0.0,4.0,4.0,4.0,4.0,0.0,4.0,4.0,4.0,4.0,4.0,4.0
85.0,0.0,4118.46153846154,4237.435897435899,4162.564102564104,4552.8205128205145,4184.615384615386,4175.897435897437,4169.23076923077,4185.128205128207,4175.897435897437,4185.128205128207,4123.076923076925,4195.384615384617,4025.641025641027,4140.000000000002,358.0,2047.0,2048.0,0.0,0.0,4.0,4.0,4.0,4.0,0.0,4.0,4.0,4.0,4.0,0.0,4.0,4.0,4.0,4.0,4.0,4.0
86.0,0.0,4117.435897435899,4240.000000000002,4158.46153846154,4542.564102564104,4184.102564102565,4186.666666666668,4167.692307692309,4182.051282051283,4175.897435897437,4186.153846153848,4116.923076923078,4202.564102564104,4023.0769230769247,4136.410256410258,862.0,2047.0,2048.0,0.0,0.0,4.0,4.0,4.0,4.0,0.0,4.0,4.0,4.0,4.0,0.0,4.0,4.0,4.0,4.0,4.0,4.0
87.0,0.0,4111.282051282053,4244.615384615386,4150.769230769232,4535.384615384617,4181.538461538463,4187.179487179489,4172.8205128205145,4177.435897435899,4170.769230769232,4186.153846153848,4112.307692307694,4194.3589743589755,4013.846153846155,4129.743589743592,822.0,2047.0,2048.0,0.0,0.0,4.0,4.0,4.0,4.0,0.0,4.0,4.0,4.0,4.0,0.0,4.0,4.0,4.0,4.0,4.0,4.0
88.0,0.0,4123.076923076925,4251.282051282053,4165.128205128207,4543.076923076925,4184.615384615386,4177.94871794872,4166.666666666668,4164.102564102565,4168.71794871795,4185.641025641027,4119.487179487181,4201.0256410256425,4025.641025641027,4141.538461538463,871.0,2047.0,2048.0,0.0,0.0,4.0,4.0,4.0,4.0,0.0,4.0,4.0,4.0,4.0,0.0,4.0,4.0,4.0,4.0,4.0,4.0
89.0,0.0,4120.512820512822,4248.20512820513,4163.076923076925,4535.897435897437,4183.589743589745,4168.20512820513,4151.282051282053,4155.897435897437,4167.179487179489,4185.128205128207,4112.8205128205145,4204.102564102565,4030.256410256412,4145.128205128207,358.0,2047.0,2048.0,0.0,0.0,4.0,4.0,4.0,4.0,0.0,4.0,4.0,4.0,4.0,0.0,4.0,4.0,4.0,4.0,4.0,4.0
90.0,0.0,4105.128205128207,4244.102564102565,4145.641025641027,4520.512820512822,4179.487179487181,4166.153846153848,4156.923076923078,4166.666666666668,4169.743589743592,4185.128205128207,4103.589743589745,4197.435897435899,4022.0512820512836,4136.410256410258,862.0,2047.0,2048.0,0.0,0.0,4.0,4.0,4.0,4.0,0.0,4.0,4.0,4.0,4.0,0.0,4.0,4.0,4.0,4.0,4.0,4.0
91.0,0.0,4116.410256410258,4255.384615384617,4154.3589743589755,4524.102564102565,4182.564102564104,4177.94871794872,4170.256410256412,4178.46153846154,4182.051282051283,4185.641025641027,4116.923076923078,4206.153846153848,4038.9743589743603,4145.641025641027,822.0,2047.0,2048.0,0.0,0.0,4.0,4.0,4.0,4.0,0.0,4.0,4.0,4.0,4.0,0.0,4.0,4.0,4.0,4.0,4.0,4.0
92.0,0.0,4126.153846153848,4263.076923076925,4161.538461538463,4525.128205128207,4183.589743589745,4188.71794871795,4171.282051282053,4175.384615384617,4185.128205128207,4186.153846153848,4125.128205128207,4201.538461538463,4055.384615384617,4149.23076923077,871.0,2047.0,2048.0,0.0,0.0,4.0,4.0,4.0,4.0,0.0,4.0,4.0,4.0,4.0,0.0,4.0,4.0,4.0,4.0,4.0,4.0
93.0,0.0,4121.538461538463,4260.000000000002,4157.94871794872,4510.256410256412,4182.564102564104,4185.641025641027,4167.179487179489,4168.20512820513,4173.846153846155,4185.641025641027,4114.871794871797,4196.923076923078,4048.71794871795,4141.0256410256425,358.0,2047.0,2048.0,0.0,0.0,4.0,4.0,4.0,4.0,0.0,4.0,4.0,4.0,4.0,0.0,4.0,4.0,4.0,4.0,4.0,4.0
94.0,0.0,4131.794871794873,4264.615384615386,4163.589743589745,4502.564102564104,4181.538461538463,4182.564102564104,4168.71794871795,4175.897435897437,4176.923076923078,4186.666666666668,4115.897435897437,4202.051282051283,4058.46153846154,4150.769230769232,862.0,2047.0,2048.0,0.0,0.0,4.0,4.0,4.0,4.0,0.0,4.0,4.0,4.0,4.0,0.0,4.0,4.0,4.0,4.0,4.0,4.0
95.0,0.0,4153.333333333335,4278.97435897436,4174.871794871797,4508.71794871795,4182.051282051283,4186.153846153848,4169.23076923077,4186.153846153848,4189.23076923077,4186.153846153848,4129.743589743592,4204.615384615386,4078.9743589743603,4170.256410256412,822.0,2047.0,2048.0,0.0,0.0,4.0,4.0,4.0,4.0,0.0,4.0,4.0,4.0,4.0,0.0,4.0,4.0,4.0,4.0,4.0,4.0
96.0,0.0,4167.692307692309,4289.23076923077,4174.3589743589755,4506.666666666668,4182.051282051283,4184.102564102565,4164.102564102565,4183.076923076925,4184.102564102565,4186.153846153848,4138.46153846154,4207.692307692309,4082.564102564104,4176.410256410258,871.0,2047.0,2048.0,0.0,0.0,4.0,4.0,4.0,4.0,0.0,4.0,4.0,4.0,4.0,0.0,4.0,4.0,4.0,4.0,4.0,4.0
97.0,0.0,4175.897435897437,4288.20512820513,4164.615384615386,4490.256410256412,4179.487179487181,4178.97435897436,4172.307692307694,4180.512820512822,4171.282051282053,4186.153846153848,4134.871794871797,4201.0256410256425,4083.589743589745,4177.435897435899,358.0,2047.0,2048.0,0.0,0.0,4.0,4.0,4.0,4.0,0.0,4.0,4.0,4.0,4.0,0.0,4.0,4.0,4.0,4.0,4.0,4.0
98.0,0.0,4203.076923076925,4295.384615384617,4188.20512820513,4489.23076923077,4185.128205128207,4185.128205128207,4189.23076923077,4183.076923076925,4169.743589743592,4185.128205128207,4134.3589743589755,4205.641025641027,4095.384615384617,4194.871794871797,862.0,2047.0,2048.0,0.0,0.0,4.0,4.0,4.0,4.0,0.0,4.0,4.0,4.0,4.0,0.0,4.0,4.0,4.0,4.0,4.0,4.0
99.0,0.0,4243.076923076925,4316.410256410258,4225.128205128207,4506.666666666668,4186.153846153848,4184.102564102565,4179.487179487181,4174.871794871797,4171.282051282053,4186.153846153848,4149.743589743592,4211.282051282053,4111.794871794873,4225.128205128207,822.0,2047.0,2048.0,0.0,0.0,4.0,4.0,4.0,4.0,0.0,4.0,4.0,4.0,4.0,0.0,4.0,4.0,4.0,4.0,4.0,4.0
100.0,0.0,4257.435897435899,4322.051282051283,4218.46153846154,4503.076923076925,4182.564102564104,4172.8205128205145,4154.3589743589755,4163.589743589745,4166.666666666668,4187.179487179489,4151.794871794873,4207.692307692309,4113.846153846155,4234.3589743589755,871.0,2047.0,2048.0,0.0,0.0,4.0,4.0,4.0,4.0,0.0,4.0,4.0,4.0,4.0,0.0,4.0,4.0,4.0,4.0,4.0,4.0
101.0,0.0,4247.692307692309,4310.256410256412,4196.923076923078,4485.641025641027,4182.564102564104,4178.97435897436,4162.564102564104,4172.8205128205145,4170.769230769232,4186.153846153848,4135.897435897437,4210.256410256412,4103.076923076925,4225.128205128207,358.0,2047.0,2048.0,0.0,0.0,4.0,4.0,4.0,4.0,0.0,4.0,4.0,4.0,4.0,0.0,4.0,4.0,4.0,4.0,4.0,4.0
102.0,0.0,4249.743589743592,4312.307692307694,4202.051282051283,4482.051282051283,4180.000000000002,4189.23076923077,4181.538461538463,4185.641025641027,4182.051282051283,4185.128205128207,4140.000000000002,4208.20512820513,4111.794871794873,4228.20512820513,862.0,2047.0,2048.0,0.0,0.0,4.0,4.0,4.0,4.0,0.0,4.0,4.0,4.0,4.0,0.0,4.0,4.0,4.0,4.0,4.0,4.0
103.0,0.0,4262.564102564104,4320.512820512822,4219.487179487181,4482.051282051283,4184.102564102565,4177.94871794872,4175.384615384617,4187.179487179489,4187.692307692309,4185.641025641027,4153.333333333335,4215.384615384617,4130.256410256412,4243.076923076925,822.0,2047.0,2048.0,0.0,0.0,4.0,4.0,4.0,4.0,0.0,4.0,4.0,4.0,4.0,0.0,4.0,4.0,4.0,4.0,4.0,4.0
104.0,0.0,4257.435897435899,4310.769230769232,4213.846153846155,4475.384615384617,4186.153846153848,4166.153846153848,4160.000000000002,4180.512820512822,4181.538461538463,4185.641025641027,4141.538461538463,4217.94871794872,4122.564102564104,4241.538461538463,871.0,2047.0,2048.0,0.0,0.0,4.0,4.0,4.0,4.0,0.0,4.0,4.0,4.0,4.0,0.0,4.0,4.0,4.0,4.0,4.0,4.0
105.0,0.0,4249.743589743592,4304.615384615386,4205.128205128207,4467.179487179488,4183.589743589745,4166.666666666668,4149.743589743592,4168.20512820513,4170.256410256412,4184.615384615386,4129.743589743592,4206.153846153848,4114.871794871797,4233.846153846155,358.0,2047.0,2048.0,0.0,0.0,4.0,4.0,4.0,4.0,0.0,4.0,4.0,4.0,4.0,0.0,4.0,4.0,4.0,4.0,4.0,4.0
106.0,0.0,4257.435897435899,4312.8205128205145,4211.282051282053,4457.94871794872,4184.615384615386,4168.20512820513,4154.871794871797,4165.641025641027,4166.666666666668,4186.153846153848,4139.487179487181,4212.307692307694,4129.743589743592,4235.897435897437,862.0,2047.0,2048.0,0.0,0.0,4.0,4.0,4.0,4.0,0.0,4.0,4.0,4.0,4.0,0.0,4.0,4.0,4.0,4.0,4.0,4.0
107.0,0.0,4249.23076923077,4309.743589743592,4200.000000000002,4449.23076923077,4183.589743589745,4168.71794871795,4163.076923076925,4170.769230769232,4168.71794871795,4186.666666666668,4145.128205128207,4213.846153846155,4134.3589743589755,4232.8205128205145,822.0,2047.0,2048.0,0.0,0.0,4.0,4.0,4.0,4.0,0.0,4.0,4.0,4.0,4.0,0.0,4.0,4.0,4.0,4.0,4.0,4.0
108.0,0.0,4227.692307692309,4297.435897435899,4188.71794871795,4443.076923076925,4184.102564102565,4167.179487179489,4147.692307692309,4166.666666666668,4168.20512820513,4185.641025641027,4134.3589743589755,4210.256410256412,4114.3589743589755,4218.46153846154,871.0,2047.0,2048.0,0.0,0.0,4.0,4.0,4.0,4.0,0.0,4.0,4.0,4.0,4.0,0.0,4.0,4.0,4.0,4.0,4.0,4.0
109.0,0.0,4210.769230769232,4292.8205128205145,4187.692307692309,4430.769230769232,4185.128205128207,4167.179487179489,4140.512820512822,4163.589743589745,4167.692307692309,4186.666666666668,4123.589743589745,4204.615384615386,4096.923076923078,4199.487179487181,358.0,2047.0,2048.0,0.0,0.0,4.0,4.0,4.0,4.0,0.0,4.0,4.0,4.0,4.0,0.0,4.0,4.0,4.0,4.0,4.0,4.0
110.0,0.0,4193.333333333335,4281.538461538463,4181.0256410256425,4420.512820512822,4183.589743589745,4169.23076923077,4155.897435897437,4171.282051282053,4169.743589743592,4188.71794871795,4120.512820512822,4196.410256410258,4091.2820512820526,4184.615384615386,862.0,2047.0,2048.0,0.0,0.0,4.0,4.0,4.0,4.0,0.0,4.0,4.0,4.0,4.0,0.0,4.0,4.0,4.0,4.0,4.0,4.0
111.0,0.0,4176.923076923078,4258.97435897436,4175.384615384617,4421.0256410256425,4184.615384615386,4170.769230769232,4159.487179487181,4172.307692307694,4171.282051282053,4187.692307692309,4123.076923076925,4204.615384615386,4089.230769230771,4179.487179487181,822.0,2047.0,2048.0,0.0,0.0,4.0,4.0,4.0,4.0,0.0,4.0,4.0,4.0,4.0,0.0,4.0,4.0,4.0,4.0,4.0,4.0
112.0,0.0,4171.282051282053,4265.128205128207,4171.282051282053,4413.846153846155,4184.102564102565,4171.282051282053,4152.8205128205145,4168.71794871795,4172.307692307694,4184.615384615386,4124.102564102565,4205.128205128207,4088.2051282051298,4177.435897435899,871.0,2047.0,2048.0,0.0,0.0,4.0,4.0,4.0,4.0,0.0,4.0,4.0,4.0,4.0,0.0,4.0,4.0,4.0,4.0,4.0,4.0
113.0,0.0,4183.076923076925,4292.8205128205145,4186.153846153848,4402.564102564104,4184.102564102565,4171.282051282053,4157.435897435899,4170.769230769232,4171.282051282053,4185.128205128207,4126.153846153848,4205.641025641027,4091.7948717948734,4183.589743589745,358.0,2047.0,2048.0,0.0,0.0,4.0,4.0,4.0,4.0,0.0,4.0,4.0,4.0,4.0,0.0,4.0,4.0,4.0,4.0,4.0,4.0
114.0,0.0,4177.435897435899,4282.051282051283,4187.692307692309,4392.307692307694,4183.589743589745,4174.871794871797,4157.435897435899,4167.692307692309,4169.743589743592,4186.666666666668,4126.153846153848,4206.666666666668,4090.256410256412,4183.589743589745,862.0,2047.0,2048.0,0.0,0.0,4.0,4.0,4.0,4.0,0.0,4.0,4.0,4.0,4.0,0.0,4.0,4.0,4.0,4.0,4.0,4.0
115.0,0.0,4155.897435897437,4259.487179487181,4170.769230769232,4383.589743589745,4183.589743589745,4181.538461538463,4156.410256410258,4163.589743589745,4169.23076923077,4185.641025641027,4121.538461538463,4198.46153846154,4084.615384615386,4168.71794871795,822.0,2047.0,2048.0,0.0,0.0,4.0,4.0,4.0,4.0,0.0,4.0,4.0,4.0,4.0,0.0,4.0,4.0,4.0,4.0,4.0,4.0
116.0,0.0,4154.871794871797,4269.743589743592,4176.410256410258,4387.692307692309,4188.20512820513,4187.179487179489,4168.71794871795,4169.743589743592,4172.307692307694,4186.153846153848,4123.076923076925,4206.153846153848,4086.1538461538476,4160.512820512822,871.0,2047.0,2048.0,0.0,0.0,4.0,4.0,4.0,4.0,0.0,4.0,4.0,4.0,4.0,0.0,4.0,4.0,4.0,4.0,4.0,4.0
117.0,0.0,4146.666666666668,4281.538461538463,4168.71794871795,4395.384615384617,4185.128205128207,4187.692307692309,4169.23076923077,4176.923076923078,4182.564102564104,4187.179487179489,4128.20512820513,4205.641025641027,4084.615384615386,4158.46153846154,358.0,2047.0,2048.0,0.0,0.0,4.0,4.0,4.0,4.0,0.0,4.0,4.0,4.0,4.0,0.0,4.0,4.0,4.0,4.0,4.0,4.0
118.0,0.0,4122.564102564104,4283.076923076925,4146.666666666668,4387.692307692309,4184.615384615386,4187.692307692309,4164.615384615386,4173.846153846155,4186.153846153848,4186.666666666668,4126.153846153848,4197.435897435899,4076.9230769230785,4150.256410256412,862.0,2047.0,2048.0,0.0,0.0,4.0,4.0,4.0,4.0,0.0,4.0,4.0,4.0,4.0,0.0,4.0,4.0,4.0,4.0,4.0,4.0
119.0,0.0,4114.3589743589755,4291.794871794873,4148.20512820513,4371.794871794873,4188.71794871795,4189.23076923077,4171.794871794873,4166.666666666668,4176.410256410258,4184.615384615386,4117.94871794872,4197.435897435899,4072.8205128205145,4138.97435897436,822.0,2047.0,2048.0,0.0,0.0,4.0,4.0,4.0,4.0,0.0,4.0,4.0,4.0,4.0,0.0,4.0,4.0,4.0,4.0,4.0,4.0
120.0,0.0,4115.384615384617,4290.769230769232,4149.23076923077,4359.487179487181,4182.564102564104,4184.102564102565,4171.282051282053,4165.128205128207,4170.769230769232,4184.615384615386,4110.769230769232,4191.794871794873,4074.358974358976,4135.384615384617,871.0,2047.0,2048.0,0.0,0.0,4.0,4.0,4.0,4.0,0.0,4.0,4.0,4.0,4.0,0.0,4.0,4.0,4.0,4.0,4.0,4.0
121.0,0.0,4111.282051282053,4285.128205128207,4142.051282051283,4346.666666666668,4184.102564102565,4182.564102564104,4164.102564102565,4168.71794871795,4174.871794871797,4185.641025641027,4109.23076923077,4195.897435897437,4078.46153846154,4137.94871794872,358.0,2047.0,2048.0,0.0,0.0,4.0,4.0,4.0,4.0,0.0,4.0,4.0,4.0,4.0,0.0,4.0,4.0,4.0,4.0,4.0,4.0
122.0,0.0,4118.97435897436,4293.846153846155,4148.20512820513,4342.564102564104,4187.692307692309,4183.589743589745,4169.23076923077,4169.23076923077,4178.46153846154,4185.641025641027,4115.384615384617,4196.923076923078,4089.230769230771,4143.589743589745,862.0,2047.0,2048.0,0.0,0.0,4.0,4.0,4.0,4.0,0.0,4.0,4.0,4.0,4.0,0.0,4.0,4.0,4.0,4.0,4.0,4.0
123.0,0.0,4131.794871794873,4303.589743589745,4163.076923076925,4348.71794871795,4187.692307692309,4175.384615384617,4170.769230769232,4165.128205128207,4178.97435897436,4185.128205128207,4123.076923076925,4194.871794871797,4101.0256410256425,4152.8205128205145,822.0,2047.0,2048.0,0.0,0.0,4.0,4.0,4.0,4.0,0.0,4.0,4.0,4.0,4.0,0.0,4.0,4.0,4.0,4.0,4.0,4.0
124.0,0.0,4136.923076923078,4302.564102564104,4160.512820512822,4346.666666666668,4185.128205128207,4170.256410256412,4154.3589743589755,4167.692307692309,4182.051282051283,4185.641025641027,4127.179487179489,4201.538461538463,4107.179487179489,4157.435897435899,871.0,2047.0,2048.0,0.0,0.0,4.0,4.0,4.0,4.0,0.0,4.0,4.0,4.0,4.0,0.0,4.0,4.0,4.0,4.0,4.0,4.0
125.0,0.0,4139.487179487181,4299.487179487181,4140.000000000002,4338.46153846154,4178.97435897436,4182.051282051283,4152.8205128205145,4176.410256410258,4182.564102564104,4185.128205128207,4124.102564102565,4197.435897435899,4106.153846153848,4151.794871794873,358.0,2047.0,2048.0,0.0,0.0,4.0,4.0,4.0,4.0,0.0,4.0,4.0,4.0,4.0,0.0,4.0,4.0,4.0,4.0,4.0,4.0
126.0,0.0,4143.589743589745,4302.564102564104,4147.179487179489,4334.3589743589755,4184.615384615386,4190.256410256412,4173.846153846155,4174.3589743589755,4174.871794871797,4185.641025641027,4120.000000000002,4195.897435897437,4098.97435897436,4148.71794871795,862.0,2047.0,2048.0,0.0,0.0,4.0,4.0,4.0,4.0,0.0,4.0,4.0,4.0,4.0,0.0,4.0,4.0,4.0,4.0,4.0,4.0
127.0,0.0,4158.46153846154,4307.179487179489,4176.923076923078,4336.923076923078,4190.256410256412,4191.282051282053,4185.128205128207,4169.23076923077,4170.256410256412,4187.179487179489,4126.666666666668,4193.846153846155,4106.153846153848,4158.97435897436,822.0,2047.0,2048.0,0.0,0.0,4.0,4.0,4.0,4.0,0.0,4.0,4.0,4.0,4.0,0.0,4.0,4.0,4.0,4.0,4.0,4.0
128.0,0.0,4178.97435897436,4311.282051282053,4170.256410256412,4340.512820512822,4183.589743589745,4197.435897435899,4178.97435897436,4177.94871794872,4176.923076923078,4187.179487179489,4133.333333333335,4193.846153846155,4117.435897435899,4168.20512820513,871.0,2047.0,2048.0,0.0,0.0,4.0,4.0,4.0,4.0,0.0,4.0,4.0,4.0,4.0,0.0,4.0,4.0,4.0,4.0,4.0,4.0
0.0,0.0,4192.8205128205145,4314.871794871797,4151.794871794873,4337.435897435899,4177.94871794872,4196.410256410258,4180.512820512822,4189.23076923077,4184.615384615386,4185.641025641027,4134.3589743589755,4203.076923076925,4118.97435897436,4178.97435897436,685.0,2047.0,2048.0,0.0,0.0,4.0,4.0,4.0,4.0,0.0,4.0,4.0,4.0,4.0,0.0,4.0,4.0,4.0,4.0,4.0,4.0
1.0,0.0,4202.051282051283,4311.282051282053,4169.23076923077,4334.871794871797,4182.051282051283,4184.615384615386,4188.71794871795,4191.794871794873,4186.666666666668,4185.641025641027,4142.564102564104,4199.487179487181,4133.846153846155,4194.3589743589755,830.0,2047.0,2048.0,0.0,0.0,4.0,4.0,4.0,4.0,0.0,4.0,4.0,4.0,4.0,0.0,4.0,4.0,4.0,4.0,4.0,4.0
2.0,0.0,4225.641025641027,4315.897435897437,4197.94871794872,4345.128205128207,4188.71794871795,4182.564102564104,4182.564102564104,4185.641025641027,4187.692307692309,4186.153846153848,4151.794871794873,4203.589743589745,4155.384615384617,4210.256410256412,806.0,2047.0,2048.0,0.0,0.0,4.0,4.0,4.0,4.0,0.0,4.0,4.0,4.0,4.0,0.0,4.0,4.0,4.0,4.0,4.0,4.0
3.0,0.0,4246.666666666668,4329.23076923077,4195.897435897437,4349.23076923077,4185.128205128207,4185.128205128207,4168.71794871795,4174.3589743589755,4183.076923076925,4186.153846153848,4151.282051282053,4208.71794871795,4160.000000000002,4226.153846153848,794.0,2047.0,2048.0,0.0,0.0,4.0,4.0,4.0,4.0,0.0,4.0,4.0,4.0,4.0,0.0,4.0,4.0,4.0,4.0,4.0,4.0
4.0,0.0,4249.23076923077,4329.23076923077,4192.307692307694,4341.538461538463,4182.564102564104,4183.076923076925,4165.641025641027,4168.20512820513,4177.435897435899,4185.641025641027,4148.71794871795,4203.589743589745,4153.333333333335,4229.23076923077,0.0,2047.0,2048.0,0.0,0.0,4.0,4.0,4.0,4.0,0.0,4.0,4.0,4.0,4.0,0.0,4.0,4.0,4.0,4.0,4.0,4.0
5.0,0.0,4255.384615384617,4325.641025641027,4205.641025641027,4346.666666666668,4186.153846153848,4182.564102564104,4168.20512820513,4170.769230769232,4180.000000000002,4185.128205128207,4155.897435897437,4206.666666666668,4160.000000000002,4228.71794871795,784.0,2047.0,2048.0,0.0,0.0,4.0,4.0,4.0,4.0,0.0,4.0,4.0,4.0,4.0,0.0,4.0,4.0,4.0,4.0,4.0,4.0
6.0,0.0,4269.743589743592,4335.384615384617,4208.20512820513,4355.384615384617,4184.102564102565,4188.20512820513,4170.256410256412,4175.384615384617,4185.641025641027,4184.102564102565,4168.71794871795,4208.71794871795,4183.589743589745,4243.589743589745,799.0,2047.0,2048.0,0.0,0.0,4.0,4.0,4.0,4.0,0.0,4.0,4.0,4.0,4.0,0.0,4.0,4.0,4.0,4.0,4.0,4.0
7.0,0.0,4281.0256410256425,4340.000000000002,4218.97435897436,4359.487179487181,4187.179487179489,4185.128205128207,4173.333333333335,4179.487179487181,4187.692307692309,4184.615384615386,4176.923076923078,4218.46153846154,4191.282051282053,4261.538461538463,824.0,2047.0,2048.0,0.0,0.0,4.0,4.0,4.0,4.0,0.0,4.0,4.0,4.0,4.0,0.0,4.0,4.0,4.0,4.0,4.0,4.0
8.0,0.0,4278.97435897436,4332.8205128205145,4232.307692307694,4360.000000000002,4187.692307692309,4172.8205128205145,4174.3589743589755,4184.615384615386,4186.153846153848,4187.179487179489,4174.871794871797,4218.97435897436,4180.512820512822,4261.538461538463,626.0,2047.0,2048.0,0.0,0.0,4.0,4.0,4.0,4.0,0.0,4.0,4.0,4.0,4.0,0.0,4.0,4.0,4.0,4.0,4.0,4.0
9.0,0.0,4270.256410256412,4331.282051282053,4222.564102564104,4344.102564102565,4182.564102564104,4170.256410256412,4174.3589743589755,4183.076923076925,4186.666666666668,4185.641025641027,4169.743589743592,4208.71794871795,4181.0256410256425,4252.307692307694,0.0,2047.0,2048.0,0.0,0.0,4.0,4.0,4.0,4.0,0.0,4.0,4.0,4.0,4.0,0.0,4.0,4.0,4.0,4.0,4.0,4.0
10.0,0.0,4257.94871794872,4326.153846153848,4205.641025641027,4327.179487179489,4183.589743589745,4174.3589743589755,4169.743589743592,4173.846153846155,4183.076923076925,4185.128205128207,4165.641025641027,4211.794871794873,4178.97435897436,4238.97435897436,862.0,2047.0,2048.0,0.0,0.0,4.0,4.0,4.0,4.0,0.0,4.0,4.0,4.0,4.0,0.0,4.0,4.0,4.0,4.0,4.0,4.0
11.0,0.0,4239.487179487181,4313.333333333335,4194.871794871797,4335.384615384617,4185.128205128207,4169.743589743592,4166.666666666668,4171.282051282053,4174.3589743589755,4192.307692307694,4154.871794871797,4205.641025641027,4156.410256410258,4216.410256410258,822.0,2047.0,2048.0,0.0,0.0,4.0,4.0,4.0,4.0,0.0,4.0,4.0,4.0,4.0,0.0,4.0,4.0,4.0,4.0,4.0,4.0
12.0,0.0,4230.256410256412,4310.769230769232,4198.46153846154,4336.410256410258,4186.153846153848,4171.282051282053,4181.538461538463,4185.641025641027,4177.435897435899,4192.307692307694,4153.333333333335,4205.128205128207,4151.282051282053,4205.641025641027,860.0,2047.0,2048.0,0.0,0.0,4.0,4.0,4.0,4.0,0.0,4.0,4.0,4.0,4.0,0.0,4.0,4.0,4.0,4.0,4.0,4.0
13.0,0.0,4216.923076923078,4303.589743589745,4192.307692307694,4311.794871794873,4183.589743589745,4178.46153846154,4188.71794871795,4189.23076923077,4182.051282051283,4184.615384615386,4154.3589743589755,4208.20512820513,4157.94871794872,4202.564102564104,343.0,2047.0,2048.0,0.0,0.0,4.0,4.0,4.0,4.0,0.0,4.0,4.0,4.0,4.0,0.0,4.0,4.0,4.0,4.0,4.0,4.0
14.0,0.0,4192.307692307694,4290.769230769232,4173.333333333335,4302.051282051283,4182.051282051283,4176.923076923078,4172.307692307694,4170.256410256412,4175.384615384617,4184.102564102565,4144.102564102565,4200.000000000002,4142.051282051283,4185.641025641027,862.0,2047.0,2048.0,0.0,0.0,4.0,4.0,4.0,4.0,0.0,4.0,4.0,4.0,4.0,0.0,4.0,4.0,4.0,4.0,4.0,4.0
15.0,0.0,4180.512820512822,4295.384615384617,4170.769230769232,4308.20512820513,4186.666666666668,4172.307692307694,4170.769230769232,4167.179487179489,4169.743589743592,4187.179487179489,4138.97435897436,4205.128205128207,4129.23076923077,4174.3589743589755,822.0,2047.0,2048.0,0.0,0.0,4.0,4.0,4.0,4.0,0.0,4.0,4.0,4.0,4.0,0.0,4.0,4.0,4.0,4.0,4.0,4.0
16.0,0.0,4173.333333333335,4304.615384615386,4169.743589743592,4301.0256410256425,4186.666666666668,4172.307692307694,4184.615384615386,4175.384615384617,4172.307692307694,4185.641025641027,4142.564102564104,4204.102564102565,4131.282051282053,4175.897435897437,0.0,2047.0,2048.0,0.0,0.0,4.0,4.0,4.0,4.0,0.0,4.0,4.0,4.0,4.0,0.0,4.0,4.0,4.0,4.0,4.0,4.0
17.0,0.0,4155.384615384617,4293.846153846155,4167.692307692309,4289.743589743592,4187.179487179489,4171.282051282053,4178.46153846154,4166.666666666668,4173.333333333335,4185.128205128207,4139.487179487181,4198.97435897436,4125.641025641027,4171.282051282053,0.0,2047.0,2048.0,0.0,0.0,4.0,4.0,4.0,4.0,0.0,4.0,4.0,4.0,4.0,0.0,4.0,4.0,4.0,4.0,4.0,4.0
18.0,0.0,4140.000000000002,4284.615384615386,4166.153846153848,4285.128205128207,4188.20512820513,4168.20512820513,4163.076923076925,4167.179487179489,4177.435897435899,4186.666666666668,4136.923076923078,4201.0256410256425,4124.615384615386,4161.538461538463,0.0,2047.0,2048.0,0.0,0.0,4.0,4.0,4.0,4.0,0.0,4.0,4.0,4.0,4.0,0.0,4.0,4.0,4.0,4.0,4.0,4.0
19.0,0.0,4140.000000000002,4298.97435897436,4155.384615384617,4272.8205128205145,4183.589743589745,4167.179487179489,4166.153846153848,4184.615384615386,4185.128205128207,4186.666666666668,4140.512820512822,4198.97435897436,4134.3589743589755,4160.512820512822,0.0,2047.0,2048.0,0.0,0.0,4.0,4.0,4.0,4.0,0.0,4.0,4.0,4.0,4.0,0.0,4.0,4.0,4.0,4.0,4.0,4.0
20.0,0.0,4147.692307692309,4317.94871794872,4158.97435897436,4266.153846153848,4184.615384615386,4175.384615384617,4179.487179487181,4188.71794871795,4185.641025641027,4186.666666666668,4146.153846153848,4204.615384615386,4133.846153846155,4171.282051282053,0.0,2047.0,2048.0,0.0,0.0,4.0,4.0,4.0,4.0,0.0,4.0,4.0,4.0,4.0,0.0,4.0,4.0,4.0,4.0,4.0,4.0
21.0,0.0,4137.94871794872,4318.97435897436,4163.589743589745,4270.256410256412,4184.615384615386,4185.128205128207,4188.71794871795,4181.0256410256425,4184.615384615386,4185.641025641027,4138.97435897436,4200.000000000002,4125.641025641027,4165.641025641027,0.0,2047.0,2048.0,0.0,0.0,4.0,4.0,4.0,4.0,0.0,4.0,4.0,4.0,4.0,0.0,4.0,4.0,4.0,4.0,4.0,4.0
22.0,0.0,4122.051282051283,4309.743589743592,4158.46153846154,4267.692307692309,4184.102564102565,4184.615384615386,4186.666666666668,4179.487179487181,4183.589743589745,4185.641025641027,4114.871794871797,4195.384615384617,4118.97435897436,4147.179487179489,0.0,2047.0,2048.0,0.0,0.0,4.0,4.0,4.0,4.0,0.0,4.0,4.0,4.0,4.0,0.0,4.0,4.0,4.0,4.0,4.0,4.0
23.0,0.0,4127.179487179489,4310.256410256412,4162.051282051283,4269.743589743592,4187.179487179489,4182.564102564104,4183.076923076925,4182.051282051283,4181.0256410256425,4185.641025641027,4109.23076923077,4204.102564102565,4121.538461538463,4153.333333333335,0.0,2047.0,2048.0,0.0,0.0,4.0,4.0,4.0,4.0,0.0,4.0,4.0,4.0,4.0,0.0,4.0,4.0,4.0,4.0,4.0,4.0
24.0,0.0,4132.8205128205145,4316.410256410258,4165.641025641027,4271.794871794873,4187.179487179489,4185.641025641027,4186.666666666668,4183.076923076925,4181.0256410256425,4185.641025641027,4121.538461538463,4201.538461538463,4131.282051282053,4163.076923076925,0.0,2047.0,2048.0,0.0,0.0,4.0,4.0,4.0,4.0,0.0,4.0,4.0,4.0,4.0,0.0,4.0,4.0,4.0,4.0,4.0,4.0
25.0,0.0,4123.589743589745,4315.897435897437,4163.076923076925,4263.589743589745,4186.666666666668,4185.641025641027,4184.615384615386,4185.128205128207,4183.076923076925,4187.179487179489,4123.589743589745,4201.538461538463,4135.897435897437,4150.256410256412,0.0,2047.0,2048.0,0.0,0.0,4.0,4.0,4.0,4.0,0.0,4.0,4.0,4.0,4.0,0.0,4.0,4.0,4.0,4.0,4.0,4.0
26.0,0.0,4113.333333333335,4315.384615384617,4155.384615384617,4253.846153846155,4186.153846153848,4184.615384615386,4181.538461538463,4185.641025641027,4183.076923076925,4186.666666666668,4117.94871794872,4201.538461538463,4136.410256410258,4139.487179487181,0.0,2047.0,2048.0,0.0,0.0,4.0,4.0,4.0,4.0,0.0,4.0,4.0,4.0,4.0,0.0,4.0,4.0,4.0,4.0,4.0,4.0
27.0,0.0,4110.769230769232,4322.051282051283,4152.307692307694,4250.256410256412,4186.666666666668,4184.615384615386,4185.641025641027,4189.743589743592,4181.0256410256425,4185.641025641027,4113.333333333335,4198.46153846154,4133.846153846155,4138.97435897436,0.0,2047.0,2048.0,0.0,0.0,4.0,4.0,4.0,4.0,0.0,4.0,4.0,4.0,4.0,0.0,4.0,4.0,4.0,4.0,4.0,4.0
28.0,0.0,4112.8205128205145,4323.589743589745,4152.307692307694,4248.71794871795,4186.153846153848,4183.589743589745,4187.692307692309,4200.512820512822,4191.282051282053,4186.153846153848,4115.897435897437,4200.000000000002,4135.897435897437,4140.000000000002,0.0,2047.0,2048.0,0.0,0.0,4.0,4.0,4.0,4.0,0.0,4.0,4.0,4.0,4.0,0.0,4.0,4.0,4.0,4.0,4.0,4.0
29.0,0.0,4110.769230769232,4320.512820512822,4151.282051282053,4248.20512820513,4185.128205128207,4183.589743589745,4185.641025641027,4200.000000000002,4197.94871794872,4186.153846153848,4126.153846153848,4196.923076923078,4144.102564102565,4143.076923076925,0.0,2047.0,2048.0,0.0,0.0,4.0,4.0,4.0,4.0,0.0,4.0,4.0,4.0,4.0,0.0,4.0,4.0,4.0,4.0,4.0,4.0
30.0,0.0,4112.8205128205145,4328.20512820513,4158.46153846154,4253.846153846155,4187.692307692309,4186.153846153848,4184.615384615386,4191.282051282053,4190.769230769232,4185.641025641027,4128.71794871795,4198.46153846154,4152.307692307694,4149.743589743592,0.0,2047.0,2048.0,0.0,0.0,4.0,4.0,4.0,4.0,0.0,4.0,4.0,4.0,4.0,0.0,4.0,4.0,4.0,4.0,4.0,4.0
31.0,0.0,4123.589743589745,4341.0256410256425,4162.051282051283,4254.871794871797,4185.641025641027,4187.692307692309,4186.153846153848,4190.769230769232,4190.256410256412,4186.666666666668,4125.641025641027,4200.000000000002,4161.538461538463,4150.769230769232,0.0,2047.0,2048.0,0.0,0.0,4.0,4.0,4.0,4.0,0.0,4.0,4.0,4.0,4.0,0.0,4.0,4.0,4.0,4.0,4.0,4.0
32.0,0.0,4127.179487179489,4337.435897435899,4154.871794871797,4251.282051282053,4184.102564102565,4183.076923076925,4183.589743589745,4185.641025641027,4191.282051282053,4186.666666666668,4123.076923076925,4200.512820512822,4166.153846153848,4147.179487179489,0.0,2047.0,2048.0,0.0,0.0,4.0,4.0,4.0,4.0,0.0,4.0,4.0,4.0,4.0,0.0,4.0,4.0,4.0,4.0,4.0,4.0
33.0,0.0,4118.46153846154,4324.102564102565,4150.769230769232,4249.743589743592,4187.179487179489,4184.615384615386,4181.0256410256425,4174.871794871797,4182.051282051283,4185.641025641027,4116.410256410258,4198.97435897436,4158.97435897436,4140.512820512822,0.0,2047.0,2048.0,0.0,0.0,4.0,4.0,4.0,4.0,0.0,4.0,4.0,4.0,4.0,0.0,4.0,4.0,4.0,4.0,4.0,4.0
34.0,0.0,4111.282051282053,4322.051282051283,4147.179487179489,4245.641025641027,4185.641025641027,4192.8205128205145,4189.743589743592,4178.46153846154,4180.000000000002,4186.666666666668,4114.871794871797,4188.20512820513,4152.8205128205145,4137.94871794872,0.0,2047.0,2048.0,0.0,0.0,4.0,4.0,4.0,4.0,0.0,4.0,4.0,4.0,4.0,0.0,4.0,4.0,4.0,4.0,4.0,4.0
35.0,0.0,4113.333333333335,4329.23076923077,4144.615384615386,4237.435897435899,4185.128205128207,4192.307692307694,4201.0256410256425,4188.71794871795,4186.666666666668,4187.179487179489,4114.871794871797,4192.307692307694,4156.923076923078,4142.051282051283,0.0,2047.0,2048.0,0.0,0.0,4.0,4.0,4.0,4.0,0.0,4.0,4.0,4.0,4.0,0.0,4.0,4.0,4.0,4.0,4.0,4.0
36.0,0.0,4114.871794871797,4328.20512820513,4143.589743589745,4234.3589743589755,4185.128205128207,4188.20512820513,4198.97435897436,4188.20512820513,4185.128205128207,4185.641025641027,4110.769230769232,4195.384615384617,4157.435897435899,4141.0256410256425,0.0,2047.0,2048.0,0.0,0.0,4.0,4.0,4.0,4.0,0.0,4.0,4.0,4.0,4.0,0.0,4.0,4.0,4.0,4.0,4.0,4.0
37.0,0.0,4124.102564102565,4328.71794871795,4148.71794871795,4242.051282051283,4185.128205128207,4189.23076923077,4194.3589743589755,4191.282051282053,4182.564102564104,4184.102564102565,4114.3589743589755,4189.743589743592,4158.97435897436,4143.076923076925,0.0,2047.0,2048.0,0.0,0.0,4.0,4.0,4.0,4.0,0.0,4.0,4.0,4.0,4.0,0.0,4.0,4.0,4.0,4.0,4.0,4.0
38.0,0.0,4144.615384615386,4341.538461538463,4164.615384615386,4246.153846153848,4187.179487179489,4189.23076923077,4201.538461538463,4201.0256410256425,4187.179487179489,4185.128205128207,4122.051282051283,4199.487179487181,4174.871794871797,4158.97435897436,0.0,2047.0,2048.0,0.0,0.0,4.0,4.0,4.0,4.0,0.0,4.0,4.0,4.0,4.0,0.0,4.0,4.0,4.0,4.0,4.0,4.0
39.0,0.0,4161.538461538463,4353.333333333335,4170.256410256412,4244.615384615386,4185.641025641027,4190.256410256412,4199.487179487181,4203.589743589745,4190.769230769232,4185.128205128207,4127.692307692309,4203.589743589745,4192.307692307694,4174.871794871797,0.0,2047.0,2048.0,0.0,0.0,4.0,4.0,4.0,4.0,0.0,4.0,4.0,4.0,4.0,0.0,4.0,4.0,4.0,4.0,4.0,4.0
40.0,0.0,4177.94871794872,4358.46153846154,4174.871794871797,4247.692307692309,4185.641025641027,4194.3589743589755,4190.256410256412,4200.000000000002,4187.179487179489,4185.128205128207,4135.384615384617,4208.20512820513,4200.000000000002,4188.71794871795,0.0,2047.0,2048.0,0.0,0.0,4.0,4.0,4.0,4.0,0.0,4.0,4.0,4.0,4.0,0.0,4.0,4.0,4.0,4.0,4.0,4.0
41.0,0.0,4194.3589743589755,4360.512820512822,4181.538461538463,4248.20512820513,4184.102564102565,4187.179487179489,4186.666666666668,4195.897435897437,4181.538461538463,4186.153846153848,4138.46153846154,4207.179487179489,4204.615384615386,4203.076923076925,0.0,2047.0,2048.0,0.0,0.0,4.0,4.0,4.0,4.0,0.0,4.0,4.0,4.0,4.0,0.0,4.0,4.0,4.0,4.0,4.0,4.0
42.0,0.0,4210.769230769232,4364.102564102565,4190.769230769232,4243.589743589745,4183.076923076925,4178.46153846154,4190.769230769232,4208.20512820513,4190.769230769232,4186.666666666668,4142.564102564104,4202.051282051283,4221.0256410256425,4217.435897435899,0.0,2047.0,2048.0,0.0,0.0,4.0,4.0,4.0,4.0,0.0,4.0,4.0,4.0,4.0,0.0,4.0,4.0,4.0,4.0,4.0,4.0
43.0,0.0,4234.3589743589755,4376.410256410258,4208.71794871795,4250.769230769232,4186.666666666668,4186.153846153848,4195.897435897437,4217.94871794872,4203.076923076925,4186.153846153848,4163.589743589745,4216.923076923078,4246.666666666668,4241.0256410256425,0.0,2047.0,2048.0,0.0,0.0,4.0,4.0,4.0,4.0,0.0,4.0,4.0,4.0,4.0,0.0,4.0,4.0,4.0,4.0,4.0,4.0
44.0,0.0,4247.692307692309,4388.20512820513,4205.641025641027,4260.512820512822,4182.051282051283,4189.23076923077,4187.692307692309,4201.538461538463,4194.871794871797,4185.641025641027,4174.871794871797,4213.333333333335,4252.307692307694,4255.384615384617,0.0,2047.0,2048.0,0.0,0.0,4.0,4.0,4.0,4.0,0.0,4.0,4.0,4.0,4.0,0.0,4.0,4.0,4.0,4.0,4.0,4.0
45.0,0.0,4246.666666666668,4387.692307692309,4199.487179487181,4258.46153846154,4183.076923076925,4182.564102564104,4182.051282051283,4193.333333333335,4184.102564102565,4185.641025641027,4169.743589743592,4210.256410256412,4237.435897435899,4252.8205128205145,0.0,2047.0,2048.0,0.0,0.0,4.0,4.0,4.0,4.0,0.0,4.0,4.0,4.0,4.0,0.0,4.0,4.0,4.0,4.0,4.0,4.0
46.0,0.0,4252.307692307694,4383.076923076925,4211.794871794873,4257.435897435899,4188.71794871795,4183.076923076925,4189.23076923077,4200.000000000002,4187.179487179489,4187.179487179489,4170.769230769232,4217.94871794872,4238.97435897436,4260.512820512822,0.0,2047.0,2048.0,0.0,0.0,4.0,4.0,4.0,4.0,0.0,4.0,4.0,4.0,4.0,0.0,4.0,4.0,4.0,4.0,4.0,4.0
47.0,0.0,4256.410256410258,4382.564102564104,4211.794871794873,4258.97435897436,4185.641025641027,4184.102564102565,4190.769230769232,4190.256410256412,4188.71794871795,4185.128205128207,4171.282051282053,4210.256410256412,4253.333333333335,4266.153846153848,0.0,2047.0,2048.0,0.0,0.0,4.0,4.0,4.0,4.0,0.0,4.0,4.0,4.0,4.0,0.0,4.0,4.0,4.0,4.0,4.0,4.0
48.0,0.0,4234.871794871797,4378.46153846154,4197.94871794872,4246.666666666668,4185.128205128207,4173.846153846155,4181.538461538463,4178.46153846154,4184.102564102565,4186.666666666668,4158.97435897436,4210.256410256412,4241.0256410256425,4238.46153846154,0.0,2047.0,2048.0,0.0,0.0,4.0,4.0,4.0,4.0,0.0,4.0,4.0,4.0,4.0,0.0,4.0,4.0,4.0,4.0,4.0,4.0
49.0,0.0,4215.384615384617,4368.20512820513,4190.769230769232,4231.794871794873,4185.641025641027,4168.20512820513,4181.538461538463,4189.743589743592,4183.589743589745,4191.794871794873,4151.282051282053,4208.20512820513,4217.435897435899,4215.384615384617,0.0,2047.0,2048.0,0.0,0.0,4.0,4.0,4.0,4.0,0.0,4.0,4.0,4.0,4.0,0.0,4.0,4.0,4.0,4.0,4.0,4.0
50.0,0.0,4221.0256410256425,4360.000000000002,4197.435897435899,4235.897435897437,4185.128205128207,4178.97435897436,4188.71794871795,4201.538461538463,4185.128205128207,4189.743589743592,4155.384615384617,4212.307692307694,4219.487179487181,4226.153846153848,0.0,2047.0,2048.0,0.0,0.0,4.0,4.0,4.0,4.0,0.0,4.0,4.0,4.0,4.0,0.0,4.0,4.0,4.0,4.0,4.0,4.0
51.0,0.0,4211.794871794873,4361.0256410256425,4192.307692307694,4243.076923076925,4184.615384615386,4185.128205128207,4184.615384615386,4198.97435897436,4190.769230769232,4184.615384615386,4160.000000000002,4216.923076923078,4224.615384615386,4227.179487179489,0.0,2047.0,2048.0,0.0,0.0,4.0,4.0,4.0,4.0,0.0,4.0,4.0,4.0,4.0,0.0,4.0,4.0,4.0,4.0,4.0,4.0
52.0,0.0,4185.641025641027,4362.051282051283,4174.3589743589755,4231.794871794873,4184.102564102565,4182.051282051283,4185.128205128207,4195.384615384617,4195.897435897437,4184.102564102565,4156.923076923078,4205.128205128207,4215.384615384617,4208.20512820513,0.0,2047.0,2048.0,0.0,0.0,4.0,4.0,4.0,4.0,0.0,4.0,4.0,4.0,4.0,0.0,4.0,4.0,4.0,4.0,4.0,4.0
53.0,0.0,4178.97435897436,4354.3589743589755,4174.871794871797,4221.0256410256425,4189.23076923077,4185.128205128207,4194.3589743589755,4197.94871794872,4191.794871794873,4186.153846153848,4151.282051282053,4209.23076923077,4213.333333333335,4197.94871794872,0.0,2047.0,2048.0,0.0,0.0,4.0,4.0,4.0,4.0,0.0,4.0,4.0,4.0,4.0,0.0,4.0,4.0,4.0,4.0,4.0,4.0
54.0,0.0,4167.692307692309,4337.435897435899,4169.743589743592,4218.97435897436,4186.153846153848,4189.743589743592,4199.487179487181,4205.641025641027,4193.333333333335,4187.179487179489,4149.743589743592,4207.692307692309,4217.435897435899,4185.641025641027,0.0,2047.0,2048.0,0.0,0.0,4.0,4.0,4.0,4.0,0.0,4.0,4.0,4.0,4.0,0.0,4.0,4.0,4.0,4.0,4.0,4.0
55.0,0.0,4149.23076923077,4328.71794871795,4160.512820512822,4217.94871794872,4185.128205128207,4189.743589743592,4199.487179487181,4205.128205128207,4201.0256410256425,4186.666666666668,4149.743589743592,4203.589743589745,4211.282051282053,4169.743589743592,0.0,2047.0,2048.0,0.0,0.0,4.0,4.0,4.0,4.0,0.0,4.0,4.0,4.0,4.0,0.0,4.0,4.0,4.0,4.0,4.0,4.0
56.0,0.0,4147.692307692309,4329.23076923077,4166.153846153848,4216.923076923078,4191.282051282053,4196.410256410258,4205.641025641027,4204.615384615386,4200.512820512822,4186.666666666668,4144.615384615386,4207.179487179489,4204.102564102565,4167.179487179489,0.0,2047.0,2048.0,0.0,0.0,4.0,4.0,4.0,4.0,0.0,4.0,4.0,4.0,4.0,0.0,4.0,4.0,4.0,4.0,4.0,4.0
57.0,0.0,4139.487179487181,4316.410256410258,4164.102564102565,4211.282051282053,4190.256410256412,4205.641025641027,4218.46153846154,4219.487179487181,4198.97435897436,4185.128205128207,4142.564102564104,4200.512820512822,4200.000000000002,4165.128205128207,0.0,2047.0,2048.0,0.0,0.0,4.0,4.0,4.0,4.0,0.0,4.0,4.0,4.0,4.0,0.0,4.0,4.0,4.0,4.0,4.0,4.0
58.0,0.0,4126.153846153848,4302.051282051283,4156.923076923078,4201.538461538463,4188.71794871795,4204.615384615386,4220.512820512822,4223.076923076925,4202.564102564104,4186.153846153848,4149.23076923077,4203.589743589745,4191.794871794873,4163.076923076925,0.0,2047.0,2048.0,0.0,0.0,4.0,4.0,4.0,4.0,0.0,4.0,4.0,4.0,4.0,0.0,4.0,4.0,4.0,4.0,4.0,4.0
59.0,0.0,4131.282051282053,4312.8205128205145,4156.923076923078,4206.666666666668,4187.179487179489,4206.666666666668,4213.333333333335,4203.589743589745,4202.564102564104,4190.769230769232,4154.871794871797,4204.615384615386,4200.000000000002,4170.769230769232,0.0,2047.0,2048.0,0.0,0.0,4.0,4.0,4.0,4.0,0.0,4.0,4.0,4.0,4.0,0.0,4.0,4.0,4.0,4.0,4.0,4.0
60.0,0.0,4143.589743589745,4330.769230769232,4166.666666666668,4222.564102564104,4186.153846153848,4214.871794871797,4211.794871794873,4200.000000000002,4203.589743589745,4191.282051282053,4158.46153846154,4205.128205128207,4214.871794871797,4178.97435897436,0.0,2047.0,2048.0,0.0,0.0,4.0,4.0,4.0,4.0,0.0,4.0,4.0,4.0,4.0,0.0,4.0,4.0,4.0,4.0,4.0,4.0
61.0,0.0,4136.410256410258,4320.000000000002,4170.256410256412,4212.8205128205145,4186.666666666668,4207.179487179489,4208.20512820513,4216.923076923078,4206.153846153848,4185.641025641027,4161.538461538463,4208.71794871795,4210.256410256412,4174.871794871797,0.0,2047.0,2048.0,0.0,0.0,4.0,4.0,4.0,4.0,0.0,4.0,4.0,4.0,4.0,0.0,4.0,4.0,4.0,4.0,4.0,4.0
62.0,0.0,4123.589743589745,4302.564102564104,4161.0256410256425,4193.846153846155,4188.20512820513,4194.3589743589755,4192.8205128205145,4215.384615384617,4202.051282051283,4183.589743589745,4153.333333333335,4199.487179487181,4201.538461538463,4160.512820512822,0.0,2047.0,2048.0,0.0,0.0,4.0,4.0,4.0,4.0,0.0,4.0,4.0,4.0,4.0,0.0,4.0,4.0,4.0,4.0,4.0,4.0
63.0,0.0,4137.435897435899,4318.46153846154,4171.282051282053,4203.589743589745,4191.794871794873,4197.94871794872,4185.641025641027,4205.641025641027,4202.564102564104,4187.692307692309,4154.871794871797,4207.179487179489,4213.333333333335,4167.692307692309,0.0,2047.0,2048.0,0.0,0.0,4.0,4.0,4.0,4.0,0.0,4.0,4.0,4.0,4.0,0.0,4.0,4.0,4.0,4.0,4.0,4.0
64.0,0.0,4152.8205128205145,4333.333333333335,4179.487179487181,4220.512820512822,4186.153846153848,4203.589743589745,4196.923076923078,4212.307692307694,4205.641025641027,4186.666666666668,4177.94871794872,4214.871794871797,4232.307692307694,4189.23076923077,685.0,2047.0,2048.0,0.0,0.0,4.0,4.0,4.0,4.0,0.0,4.0,4.0,4.0,4.0,0.0,4.0,4.0,4.0,4.0,4.0,4.0
65.0,0.0,4147.179487179489,4323.589743589745,4174.3589743589755,4215.384615384617,4185.641025641027,4200.000000000002,4205.128205128207,4213.846153846155,4202.051282051283,4183.589743589745,4189.23076923077,4210.769230769232,4230.256410256412,4189.23076923077,830.0,2047.0,2048.0,0.0,0.0,4.0,4.0,4.0,4.0,0.0,4.0,4.0,4.0,4.0,0.0,4.0,4.0,4.0,4.0,4.0,4.0
66.0,0.0,4136.410256410258,4313.333333333335,4175.384615384617,4204.102564102565,4192.307692307694,4198.46153846154,4204.102564102565,4203.076923076925,4196.923076923078,4186.666666666668,4175.897435897437,4211.282051282053,4218.46153846154,4172.8205128205145,806.0,2047.0,2048.0,0.0,0.0,4.0,4.0,4.0,4.0,0.0,4.0,4.0,4.0,4.0,0.0,4.0,4.0,4.0,4.0,4.0,4.0
67.0,0.0,4127.692307692309,4307.179487179489,4168.20512820513,4196.923076923078,4190.256410256412,4201.538461538463,4203.076923076925,4197.94871794872,4197.435897435899,4188.71794871795,4161.538461538463,4202.051282051283,4208.71794871795,4161.0256410256425,794.0,2047.0,2048.0,0.0,0.0,4.0,4.0,4.0,4.0,0.0,4.0,4.0,4.0,4.0,0.0,4.0,4.0,4.0,4.0,4.0,4.0
68.0,0.0,4127.692307692309,4300.512820512822,4162.564102564104,4192.8205128205145,4188.71794871795,4203.076923076925,4204.615384615386,4204.102564102565,4199.487179487181,4186.666666666668,4156.923076923078,4200.512820512822,4203.589743589745,4157.435897435899,0.0,2047.0,2048.0,0.0,0.0,4.0,4.0,4.0,4.0,0.0,4.0,4.0,4.0,4.0,0.0,4.0,4.0,4.0,4.0,4.0,4.0
69.0,0.0,4133.846153846155,4300.512820512822,4161.538461538463,4192.8205128205145,4188.71794871795,4203.076923076925,4203.589743589745,4211.282051282053,4202.051282051283,4185.128205128207,4153.846153846155,4198.97435897436,4204.615384615386,4157.435897435899,784.0,2047.0,2048.0,0.0,0.0,4.0,4.0,4.0,4.0,0.0,4.0,4.0,4.0,4.0,0.0,4.0,4.0,4.0,4.0,4.0,4.0
70.0,0.0,4147.179487179489,4311.794871794873,4163.589743589745,4195.897435897437,4187.179487179489,4203.589743589745,4200.512820512822,4209.23076923077,4204.102564102565,4185.641025641027,4152.8205128205145,4198.46153846154,4211.282051282053,4168.20512820513,801.0,2047.0,2048.0,0.0,0.0,4.0,4.0,4.0,4.0,0.0,4.0,4.0,4.0,4.0,0.0,4.0,4.0,4.0,4.0,4.0,4.0
71.0,0.0,4173.846153846155,4326.666666666668,4178.46153846154,4205.128205128207,4187.692307692309,4204.102564102565,4198.46153846154,4203.076923076925,4205.128205128207,4186.666666666668,4162.051282051283,4210.256410256412,4227.692307692309,4187.692307692309,820.0,2047.0,2048.0,0.0,0.0,4.0,4.0,4.0,4.0,0.0,4.0,4.0,4.0,4.0,0.0,4.0,4.0,4.0,4.0,4.0,4.0
72.0,0.0,4196.410256410258,4333.333333333335,4191.282051282053,4214.3589743589755,4189.743589743592,4202.051282051283,4204.102564102565,4206.666666666668,4203.589743589745,4183.589743589745,4171.794871794873,4205.128205128207,4243.589743589745,4197.435897435899,626.0,2047.0,2048.0,0.0,0.0,4.0,4.0,4.0,4.0,0.0,4.0,4.0,4.0,4.0,0.0,4.0,4.0,4.0,4.0,4.0,4.0
73.0,0.0,4214.871794871797,4338.46153846154,4204.102564102565,4219.487179487181,4195.384615384617,4201.538461538463,4205.641025641027,4206.153846153848,4200.512820512822,4184.102564102565,4171.794871794873,4205.128205128207,4247.179487179489,4206.153846153848,0.0,2047.0,2048.0,0.0,0.0,4.0,4.0,4.0,4.0,0.0,4.0,4.0,4.0,4.0,0.0,4.0,4.0,4.0,4.0,4.0,4.0
74.0,0.0,4237.435897435899,4346.153846153848,4205.128205128207,4219.487179487181,4191.794871794873,4198.97435897436,4189.23076923077,4193.846153846155,4200.000000000002,4192.8205128205145,4166.666666666668,4209.23076923077,4246.153846153848,4219.487179487181,862.0,2047.0,2048.0,0.0,0.0,4.0,4.0,4.0,4.0,0.0,4.0,4.0,4.0,4.0,0.0,4.0,4.0,4.0,4.0,4.0,4.0
75.0,0.0,4254.3589743589755,4350.769230769232,4201.0256410256425,4223.076923076925,4185.641025641027,4193.846153846155,4182.051282051283,4188.71794871795,4198.46153846154,4194.3589743589755,4169.23076923077,4206.666666666668,4256.410256410258,4233.846153846155,822.0,2047.0,2048.0,0.0,0.0,4.0,4.0,4.0,4.0,0.0,4.0,4.0,4.0,4.0,0.0,4.0,4.0,4.0,4.0,4.0,4.0
76.0,0.0,4267.179487179489,4345.641025641027,4216.410256410258,4234.871794871797,4190.256410256412,4193.333333333335,4194.3589743589755,4190.256410256412,4198.46153846154,4186.666666666668,4180.000000000002,4214.871794871797,4267.179487179489,4249.743589743592,860.0,2047.0,2048.0,0.0,0.0,4.0,4.0,4.0,4.0,0.0,4.0,4.0,4.0,4.0,0.0,4.0,4.0,4.0,4.0,4.0,4.0
77.0,0.0,4278.46153846154,4339.487179487181,4225.128205128207,4237.435897435899,4190.769230769232,4189.23076923077,4191.794871794873,4190.256410256412,4198.97435897436,4184.102564102565,4185.128205128207,4211.794871794873,4269.743589743592,4254.871794871797,340.0,2047.0,2048.0,0.0,0.0,4.0,4.0,4.0,4.0,0.0,4.0,4.0,4.0,4.0,0.0,4.0,4.0,4.0,4.0,4.0,4.0
78.0,0.0,4279.487179487181,4340.000000000002,4223.076923076925,4234.871794871797,4188.71794871795,4182.564102564104,4178.97435897436,4195.897435897437,4198.46153846154,4187.179487179489,4183.589743589745,4213.846153846155,4271.282051282053,4247.692307692309,862.0,2047.0,2048.0,0.0,0.0,4.0,4.0,4.0,4.0,0.0,4.0,4.0,4.0,4.0,0.0,4.0,4.0,4.0,4.0,4.0,4.0
79.0,0.0,4265.641025641027,4338.46153846154,4217.94871794872,4234.3589743589755,4188.20512820513,4187.692307692309,4187.692307692309,4197.94871794872,4198.46153846154,4185.641025641027,4186.153846153848,4218.97435897436,4268.20512820513,4248.20512820513,822.0,2047.0,2048.0,0.0,0.0,4.0,4.0,4.0,4.0,0.0,4.0,4.0,4.0,4.0,0.0,4.0,4.0,4.0,4.0,4.0,4.0
80.0,0.0,4253.846153846155,4330.769230769232,4206.666666666668,4225.128205128207,4186.153846153848,4192.8205128205145,4199.487179487181,4188.20512820513,4194.871794871797,4184.102564102565,4186.153846153848,4215.384615384617,4260.000000000002,4249.23076923077,860.0,2047.0,2048.0,0.0,0.0,4.0,4.0,4.0,4.0,0.0,4.0,4.0,4.0,4.0,0.0,4.0,4.0,4.0,4.0,4.0,4.0
81.0,0.0,4245.641025641027,4327.179487179489,4202.051282051283,4209.743589743592,4188.71794871795,4188.20512820513,4198.97435897436,4183.589743589745,4187.692307692309,4186.666666666668,4177.435897435899,4217.435897435899,4251.282051282053,4232.307692307694,340.0,2047.0,2048.0,0.0,0.0,4.0,4.0,4.0,4.0,0.0,4.0,4.0,4.0,4.0,0.0,4.0,4.0,4.0,4.0,4.0,4.0
82.0,0.0,4224.102564102565,4318.46153846154,4196.410256410258,4209.743589743592,4187.692307692309,4185.128205128207,4196.923076923078,4188.71794871795,4186.153846153848,4185.641025641027,4168.71794871795,4209.23076923077,4245.641025641027,4211.282051282053,862.0,2047.0,2048.0,0.0,0.0,4.0,4.0,4.0,4.0,0.0,4.0,4.0,4.0,4.0,0.0,4.0,4.0,4.0,4.0,4.0,4.0
83.0,0.0,4208.71794871795,4304.615384615386,4191.794871794873,4216.923076923078,4189.23076923077,4191.794871794873,4193.333333333335,4189.743589743592,4193.333333333335,4184.615384615386,4167.179487179489,4210.256410256412,4243.076923076925,4205.641025641027,822.0,2047.0,2048.0,0.0,0.0,4.0,4.0,4.0,4.0,0.0,4.0,4.0,4.0,4.0,0.0,4.0,4.0,4.0,4.0,4.0,4.0
84.0,0.0,4213.846153846155,4307.692307692309,4189.23076923077,4213.846153846155,4192.307692307694,4200.000000000002,4193.333333333335,4192.8205128205145,4199.487179487181,4185.128205128207,4173.333333333335,4214.871794871797,4244.615384615386,4203.589743589745,860.0,2047.0,2048.0,0.0,0.0,4.0,4.0,4.0,4.0,0.0,4.0,4.0,4.0,4.0,0.0,4.0,4.0,4.0,4.0,4.0,4.0
85.0,0.0,4217.435897435899,4314.3589743589755,4190.256410256412,4210.769230769232,4190.256410256412,4203.076923076925,4203.076923076925,4200.512820512822,4203.589743589745,4186.153846153848,4179.487179487181,4206.666666666668,4243.589743589745,4198.97435897436,340.0,2047.0,2048.0,0.0,0.0,4.0,4.0,4.0,4.0,0.0,4.0,4.0,4.0,4.0,0.0,4.0,4.0,4.0,4.0,4.0,4.0
86.0,0.0,4201.0256410256425,4302.564102564104,4189.23076923077,4206.666666666668,4191.282051282053,4202.051282051283,4205.641025641027,4204.615384615386,4205.128205128207,4186.153846153848,4174.871794871797,4210.256410256412,4235.384615384617,4194.3589743589755,862.0,2047.0,2048.0,0.0,0.0,4.0,4.0,4.0,4.0,0.0,4.0,4.0,4.0,4.0,0.0,4.0,4.0,4.0,4.0,4.0,4.0
87.0,0.0,4170.256410256412,4283.076923076925,4166.153846153848,4194.871794871797,4188.71794871795,4197.94871794872,4199.487179487181,4199.487179487181,4202.564102564104,4185.128205128207,4161.0256410256425,4201.0256410256425,4219.487179487181,4173.333333333335,822.0,2047.0,2048.0,0.0,0.0,4.0,4.0,4.0,4.0,0.0,4.0,4.0,4.0,4.0,0.0,4.0,4.0,4.0,4.0,4.0,4.0
88.0,0.0,4151.794871794873,4272.8205128205145,4153.333333333335,4187.179487179489,4188.20512820513,4193.846153846155,4198.46153846154,4188.71794871795,4198.97435897436,4185.641025641027,4150.256410256412,4194.871794871797,4209.23076923077,4153.333333333335,860.0,2047.0,2048.0,0.0,0.0,4.0,4.0,4.0,4.0,0.0,4.0,4.0,4.0,4.0,0.0,4.0,4.0,4.0,4.0,4.0,4.0
89.0,0.0,4149.23076923077,4269.23076923077,4166.153846153848,4185.641025641027,4188.71794871795,4191.794871794873,4194.3589743589755,4183.076923076925,4198.46153846154,4186.666666666668,4152.307692307694,4204.102564102565,4214.3589743589755,4156.923076923078,340.0,2047.0,2048.0,0.0,0.0,4.0,4.0,4.0,4.0,0.0,4.0,4.0,4.0,4.0,0.0,4.0,4.0,4.0,4.0,4.0,4.0
90.0,0.0,4149.23076923077,4276.410256410258,4169.23076923077,4189.23076923077,4186.153846153848,4197.435897435899,4189.23076923077,4187.692307692309,4201.538461538463,4186.153846153848,4162.564102564104,4203.076923076925,4218.46153846154,4162.051282051283,862.0,2047.0,2048.0,0.0,0.0,4.0,4.0,4.0,4.0,0.0,4.0,4.0,4.0,4.0,0.0,4.0,4.0,4.0,4.0,4.0,4.0
91.0,0.0,4152.307692307694,4285.641025641027,4168.20512820513,4194.3589743589755,4187.692307692309,4202.051282051283,4197.435897435899,4196.923076923078,4207.179487179489,4186.153846153848,4169.743589743592,4210.256410256412,4215.897435897437,4161.0256410256425,822.0,2047.0,2048.0,0.0,0.0,4.0,4.0,4.0,4.0,0.0,4.0,4.0,4.0,4.0,0.0,4.0,4.0,4.0,4.0,4.0,4.0
92.0,0.0,4147.179487179489,4276.923076923078,4163.076923076925,4187.179487179489,4186.153846153848,4199.487179487181,4201.538461538463,4201.0256410256425,4209.743589743592,4186.153846153848,4166.666666666668,4209.23076923077,4214.871794871797,4161.0256410256425,860.0,2047.0,2048.0,0.0,0.0,4.0,4.0,4.0,4.0,0.0,4.0,4.0,4.0,4.0,0.0,4.0,4.0,4.0,4.0,4.0,4.0
93.0,0.0,4136.923076923078,4268.20512820513,4161.0256410256425,4181.538461538463,4187.179487179489,4196.923076923078,4199.487179487181,4198.46153846154,4208.71794871795,4185.128205128207,4165.128205128207,4205.641025641027,4215.384615384617,4160.512820512822,340.0,2047.0,2048.0,0.0,0.0,4.0,4.0,4.0,4.0,0.0,4.0,4.0,4.0,4.0,0.0,4.0,4.0,4.0,4.0,4.0,4.0
94.0,0.0,4143.589743589745,4272.8205128205145,4171.282051282053,4194.871794871797,4188.20512820513,4198.97435897436,4206.153846153848,4197.435897435899,4211.282051282053,4187.692307692309,4174.871794871797,4210.769230769232,4218.46153846154,4166.153846153848,862.0,2047.0,2048.0,0.0,0.0,4.0,4.0,4.0,4.0,0.0,4.0,4.0,4.0,4.0,0.0,4.0,4.0,4.0,4.0,4.0,4.0
95.0,0.0,4154.871794871797,4278.97435897436,4178.46153846154,4203.589743589745,4185.641025641027,4201.538461538463,4209.23076923077,4211.794871794873,4216.923076923078,4187.179487179489,4182.051282051283,4209.23076923077,4227.692307692309,4175.384615384617,822.0,2047.0,2048.0,0.0,0.0,4.0,4.0,4.0,4.0,0.0,4.0,4.0,4.0,4.0,0.0,4.0,4.0,4.0,4.0,4.0,4.0
96.0,0.0,4156.923076923078,4280.000000000002,4180.512820512822,4192.8205128205145,4189.23076923077,4202.564102564104,4197.435897435899,4218.97435897436,4218.97435897436,4186.153846153848,4175.897435897437,4212.307692307694,4228.20512820513,4174.3589743589755,860.0,2047.0,2048.0,0.0,0.0,4.0,4.0,4.0,4.0,0.0,4.0,4.0,4.0,4.0,0.0,4.0,4.0,4.0,4.0,4.0,4.0
97.0,0.0,4147.692307692309,4272.8205128205145,4170.769230769232,4184.615384615386,4187.179487179489,4201.0256410256425,4191.794871794873,4197.94871794872,4213.333333333335,4191.794871794873,4170.256410256412,4207.692307692309,4217.94871794872,4163.076923076925,340.0,2047.0,2048.0,0.0,0.0,4.0,4.0,4.0,4.0,0.0,4.0,4.0,4.0,4.0,0.0,4.0,4.0,4.0,4.0,4.0,4.0
98.0,0.0,4136.410256410258,4263.589743589745,4160.512820512822,4182.564102564104,4184.615384615386,4202.564102564104,4201.538461538463,4179.487179487181,4204.615384615386,4192.307692307694,4167.692307692309,4204.615384615386,4213.846153846155,4160.000000000002,862.0,2047.0,2048.0,0.0,0.0,4.0,4.0,4.0,4.0,0.0,4.0,4.0,4.0,4.0,0.0,4.0,4.0,4.0,4.0,4.0,4.0
99.0,0.0,4128.71794871795,4257.94871794872,4157.435897435899,4172.307692307694,4187.179487179489,4205.641025641027,4206.153846153848,4184.102564102565,4202.051282051283,4185.128205128207,4163.076923076925,4211.282051282053,4210.769230769232,4158.46153846154,822.0,2047.0,2048.0,0.0,0.0,4.0,4.0,4.0,4.0,0.0,4.0,4.0,4.0,4.0,0.0,4.0,4.0,4.0,4.0,4.0,4.0
100.0,0.0,4124.615384615386,4255.897435897437,4150.769230769232,4166.153846153848,4184.615384615386,4201.0256410256425,4196.923076923078,4184.102564102565,4203.589743589745,4184.102564102565,4160.512820512822,4201.538461538463,4207.692307692309,4149.23076923077,860.0,2047.0,2048.0,0.0,0.0,4.0,4.0,4.0,4.0,0.0,4.0,4.0,4.0,4.0,0.0,4.0,4.0,4.0,4.0,4.0,4.0
101.0,0.0,4130.256410256412,4261.0256410256425,4158.97435897436,4178.46153846154,4185.641025641027,4196.923076923078,4189.23076923077,4177.94871794872,4201.0256410256425,4187.692307692309,4165.641025641027,4203.589743589745,4212.307692307694,4153.846153846155,340.0,2047.0,2048.0,0.0,0.0,4.0,4.0,4.0,4.0,0.0,4.0,4.0,4.0,4.0,0.0,4.0,4.0,4.0,4.0,4.0,4.0
102.0,0.0,4133.333333333335,4262.051282051283,4167.179487179489,4186.666666666668,4188.20512820513,4198.97435897436,4197.94871794872,4186.153846153848,4202.051282051283,4185.641025641027,4170.256410256412,4208.20512820513,4213.846153846155,4161.538461538463,862.0,2047.0,2048.0,0.0,0.0,4.0,4.0,4.0,4.0,0.0,4.0,4.0,4.0,4.0,0.0,4.0,4.0,4.0,4.0,4.0,4.0
103.0,0.0,4124.615384615386,4253.333333333335,4156.923076923078,4178.97435897436,4189.743589743592,4200.000000000002,4201.538461538463,4192.307692307694,4208.71794871795,4184.615384615386,4161.538461538463,4202.051282051283,4204.102564102565,4153.333333333335,822.0,2047.0,2048.0,0.0,0.0,4.0,4.0,4.0,4.0,0.0,4.0,4.0,4.0,4.0,0.0,4.0,4.0,4.0,4.0,4.0,4.0
104.0,0.0,4118.97435897436,4250.256410256412,4147.692307692309,4170.769230769232,4189.23076923077,4196.410256410258,4187.179487179489,4185.641025641027,4208.71794871795,4187.179487179489,4150.256410256412,4204.102564102565,4193.333333333335,4142.564102564104,860.0,2047.0,2048.0,0.0,0.0,4.0,4.0,4.0,4.0,0.0,4.0,4.0,4.0,4.0,0.0,4.0,4.0,4.0,4.0,4.0,4.0
105.0,0.0,4123.589743589745,4260.512820512822,4148.20512820513,4170.769230769232,4185.641025641027,4198.97435897436,4187.692307692309,4188.20512820513,4203.076923076925,4186.153846153848,4155.384615384617,4202.564102564104,4194.871794871797,4144.615384615386,340.0,2047.0,2048.0,0.0,0.0,4.0,4.0,4.0,4.0,0.0,4.0,4.0,4.0,4.0,0.0,4.0,4.0,4.0,4.0,4.0,4.0
106.0,0.0,4137.435897435899,4270.256410256412,4165.641025641027,4179.487179487181,4188.71794871795,4205.641025641027,4203.076923076925,4195.384615384617,4202.051282051283,4184.615384615386,4169.743589743592,4209.743589743592,4208.71794871795,4157.94871794872,862.0,2047.0,2048.0,0.0,0.0,4.0,4.0,4.0,4.0,0.0,4.0,4.0,4.0,4.0,0.0,4.0,4.0,4.0,4.0,4.0,4.0
107.0,0.0,4145.641025641027,4265.641025641027,4177.435897435899,4185.128205128207,4191.282051282053,4205.641025641027,4202.564102564104,4197.94871794872,4209.743589743592,4185.128205128207,4171.794871794873,4209.23076923077,4219.487179487181,4168.20512820513,822.0,2047.0,2048.0,0.0,0.0,4.0,4.0,4.0,4.0,0.0,4.0,4.0,4.0,4.0,0.0,4.0,4.0,4.0,4.0,4.0,4.0
108.0,0.0,4153.333333333335,4265.128205128207,4173.333333333335,4184.102564102565,4186.666666666668,4202.564102564104,4195.897435897437,4196.923076923078,4213.846153846155,4186.153846153848,4166.666666666668,4202.564102564104,4215.897435897437,4168.71794871795,860.0,2047.0,2048.0,0.0,0.0,4.0,4.0,4.0,4.0,0.0,4.0,4.0,4.0,4.0,0.0,4.0,4.0,4.0,4.0,4.0,4.0
109.0,0.0,4167.692307692309,4274.3589743589755,4175.384615384617,4185.128205128207,4186.666666666668,4203.076923076925,4200.512820512822,4190.256410256412,4207.179487179489,4185.641025641027,4168.71794871795,4210.769230769232,4213.846153846155,4172.307692307694,340.0,2047.0,2048.0,0.0,0.0,4.0,4.0,4.0,4.0,0.0,4.0,4.0,4.0,4.0,0.0,4.0,4.0,4.0,4.0,4.0,4.0
110.0,0.0,4176.923076923078,4275.384615384617,4175.384615384617,4184.615384615386,4186.153846153848,4202.051282051283,4201.538461538463,4184.615384615386,4201.538461538463,4184.615384615386,4170.256410256412,4204.615384615386,4223.076923076925,4177.435897435899,862.0,2047.0,2048.0,0.0,0.0,4.0,4.0,4.0,4.0,0.0,4.0,4.0,4.0,4.0,0.0,4.0,4.0,4.0,4.0,4.0,4.0
111.0,0.0,4187.692307692309,4271.794871794873,4177.435897435899,4176.410256410258,4187.692307692309,4195.897435897437,4190.256410256412,4181.538461538463,4202.051282051283,4185.641025641027,4169.23076923077,4203.076923076925,4232.307692307694,4184.102564102565,822.0,2047.0,2048.0,0.0,0.0,4.0,4.0,4.0,4.0,0.0,4.0,4.0,4.0,4.0,0.0,4.0,4.0,4.0,4.0,4.0,4.0
112.0,0.0,4210.256410256412,4278.97435897436,4186.153846153848,4175.384615384617,4188.20512820513,4194.871794871797,4182.564102564104,4182.051282051283,4201.0256410256425,4187.179487179489,4177.435897435899,4207.692307692309,4241.0256410256425,4200.512820512822,860.0,2047.0,2048.0,0.0,0.0,4.0,4.0,4.0,4.0,0.0,4.0,4.0,4.0,4.0,0.0,4.0,4.0,4.0,4.0,4.0,4.0
113.0,0.0,4231.794871794873,4292.307692307694,4195.897435897437,4187.179487179489,4187.692307692309,4197.435897435899,4189.23076923077,4188.20512820513,4200.000000000002,4184.102564102565,4186.666666666668,4205.641025641027,4246.666666666668,4219.487179487181,340.0,2047.0,2048.0,0.0,0.0,4.0,4.0,4.0,4.0,0.0,4.0,4.0,4.0,4.0,0.0,4.0,4.0,4.0,4.0,4.0,4.0
114.0,0.0,4245.641025641027,4296.923076923078,4207.692307692309,4192.307692307694,4191.282051282053,4192.307692307694,4191.282051282053,4186.153846153848,4202.564102564104,4185.128205128207,4186.666666666668,4211.282051282053,4248.20512820513,4231.282051282053,862.0,2047.0,2048.0,0.0,0.0,4.0,4.0,4.0,4.0,0.0,4.0,4.0,4.0,4.0,0.0,4.0,4.0,4.0,4.0,4.0,4.0
115.0,0.0,4253.846153846155,4291.794871794873,4205.128205128207,4189.23076923077,4187.692307692309,4183.589743589745,4182.051282051283,4170.256410256412,4198.97435897436,4192.307692307694,4183.589743589745,4206.153846153848,4250.769230769232,4235.897435897437,822.0,2047.0,2048.0,0.0,0.0,4.0,4.0,4.0,4.0,0.0,4.0,4.0,4.0,4.0,0.0,4.0,4.0,4.0,4.0,4.0,4.0
116.0,0.0,4257.435897435899,4290.256410256412,4200.512820512822,4194.3589743589755,4185.641025641027,4182.051282051283,4179.487179487181,4164.615384615386,4196.410256410258,4191.794871794873,4183.589743589745,4207.179487179489,4244.615384615386,4242.051282051283,860.0,2047.0,2048.0,0.0,0.0,4.0,4.0,4.0,4.0,0.0,4.0,4.0,4.0,4.0,0.0,4.0,4.0,4.0,4.0,4.0,4.0
117.0,0.0,4254.871794871797,4295.897435897437,4204.102564102565,4202.051282051283,4190.256410256412,4186.153846153848,4186.153846153848,4174.3589743589755,4200.000000000002,4184.615384615386,4186.153846153848,4214.871794871797,4243.589743589745,4245.641025641027,340.0,2047.0,2048.0,0.0,0.0,4.0,4.0,4.0,4.0,0.0,4.0,4.0,4.0,4.0,0.0,4.0,4.0,4.0,4.0,4.0,4.0
