COUNTER,INTERPOLATED,AF3,F7,F3,FC5,T7,P7,O1,O2,P8,T8,FC6,F4,F8,AF4,RAW_CQ,GYROX,GYROY,MARKER,SYNC,CQ_AF3,CQ_F7,CQ_F3,CQ_FC5,CQ_T7,CQ_P7,CQ_O1,CQ_O2,CQ_P8,CQ_T8,CQ_FC6,CQ_F4,CQ_F8,CQ_AF4,CQ_CMS,CQ_DRL
43.0,0.0,4134.3589743589755,4105.641025641027,4165.128205128207,4170.769230769232,4185.641025641027,4214.3589743589755,4192.307692307694,4182.051282051283,4215.384615384617,4184.615384615386,4171.282051282053,4210.256410256412,4158.46153846154,4141.538461538463,0.0,2047.0,2048.0,0.0,0.0,0.0,0.0,0.0,0.0,0.0,0.0,0.0,0.0,0.0,0.0,0.0,0.0,0.0,0.0,0.0,0.0
44.0,0.0,4150.256410256412,4119.487179487181,4170.769230769232,4178.46153846154,4184.102564102565,4215.897435897437,4193.333333333335,4183.589743589745,4216.410256410258,4185.641025641027,4181.0256410256425,4205.641025641027,4168.71794871795,4151.794871794873,0.0,2047.0,2048.0,0.0,0.0,0.0,0.0,0.0,0.0,0.0,0.0,0.0,0.0,0.0,0.0,0.0,0.0,0.0,0.0,0.0,0.0
45.0,0.0,4165.641025641027,4125.641025641027,4176.923076923078,4182.564102564104,4186.666666666668,4215.897435897437,4184.615384615386,4184.102564102565,4215.897435897437,4185.128205128207,4187.692307692309,4208.71794871795,4178.46153846154,4162.051282051283,0.0,2047.0,2048.0,0.0,0.0,0.0,0.0,0.0,0.0,0.0,0.0,0.0,0.0,0.0,0.0,0.0,0.0,0.0,0.0,0.0,0.0
46.0,0.0,4184.102564102565,4129.23076923077,4181.0256410256425,4184.615384615386,4184.615384615386,4211.794871794873,4181.538461538463,4182.051282051283,4214.3589743589755,4185.641025641027,4191.794871794873,4207.179487179489,4186.666666666668,4179.487179487181,0.0,2047.0,2048.0,0.0,0.0,0.0,0.0,0.0,0.0,0.0,0.0,0.0,0.0,0.0,0.0,0.0,0.0,0.0,0.0,0.0,0.0
47.0,0.0,4219.487179487181,4141.0256410256425,4196.410256410258,4196.923076923078,4186.666666666668,4211.794871794873,4185.128205128207,4184.102564102565,4212.8205128205145,4187.179487179489,4200.000000000002,4208.71794871795,4201.0256410256425,4200.000000000002,0.0,2047.0,2048.0,0.0,0.0,0.0,0.0,0.0,0.0,0.0,0.0,0.0,0.0,0.0,0.0,0.0,0.0,0.0,0.0,0.0,0.0
48.0,0.0,4249.23076923077,4157.94871794872,4208.20512820513,4204.102564102565,4187.692307692309,4211.794871794873,4183.589743589745,4185.128205128207,4207.692307692309,4185.128205128207,4202.564102564104,4211.282051282053,4214.871794871797,4214.3589743589755,0.0,2047.0,2048.0,0.0,0.0,0.0,0.0,0.0,0.0,0.0,0.0,0.0,0.0,0.0,0.0,0.0,0.0,0.0,0.0,0.0,0.0
49.0,0.0,4266.153846153848,4169.743589743592,4210.256410256412,4202.564102564104,4185.641025641027,4206.153846153848,4181.538461538463,4183.589743589745,4204.102564102565,4184.102564102565,4200.512820512822,4210.769230769232,4219.487179487181,4226.666666666668,0.0,2047.0,2048.0,0.0,0.0,0.0,0.0,0.0,0.0,0.0,0.0,0.0,0.0,0.0,0.0,0.0,0.0,0.0,0.0,0.0,0.0
50.0,0.0,4277.94871794872,4165.128205128207,4217.94871794872,4208.71794871795,4185.641025641027,4207.692307692309,4186.153846153848,4178.46153846154,4203.589743589745,4186.153846153848,4202.051282051283,4216.923076923078,4217.94871794872,4234.871794871797,0.0,2047.0,2048.0,0.0,0.0,0.0,0.0,0.0,0.0,0.0,0.0,0.0,0.0,0.0,0.0,0.0,0.0,0.0,0.0,0.0,0.0
51.0,0.0,4281.0256410256425,4149.23076923077,4224.615384615386,4216.410256410258,4184.615384615386,4213.333333333335,4188.71794871795,4170.769230769232,4201.0256410256425,4185.641025641027,4198.46153846154,4211.282051282053,4216.923076923078,4236.923076923078,0.0,2047.0,2048.0,0.0,0.0,0.0,0.0,0.0,0.0,0.0,0.0,0.0,0.0,0.0,0.0,0.0,0.0,0.0,0.0,0.0,0.0
52.0,0.0,4284.102564102565,4156.923076923078,4230.256410256412,4219.487179487181,4187.692307692309,4207.179487179489,4183.589743589745,4169.743589743592,4200.000000000002,4184.615384615386,4199.487179487181,4212.8205128205145,4221.538461538463,4246.666666666668,0.0,2047.0,2048.0,0.0,0.0,0.0,0.0,0.0,0.0,0.0,0.0,0.0,0.0,0.0,0.0,0.0,0.0,0.0,0.0,0.0,0.0
53.0,0.0,4284.102564102565,4176.923076923078,4223.076923076925,4214.3589743589755,4187.179487179489,4196.410256410258,4173.333333333335,4171.794871794873,4200.000000000002,4186.153846153848,4206.153846153848,4216.923076923078,4220.512820512822,4252.307692307694,0.0,2047.0,2048.0,0.0,0.0,0.0,0.0,0.0,0.0,0.0,0.0,0.0,0.0,0.0,0.0,0.0,0.0,0.0,0.0,0.0,0.0
54.0,0.0,4272.8205128205145,4170.769230769232,4210.769230769232,4206.153846153848,4184.615384615386,4197.435897435899,4167.692307692309,4171.282051282053,4197.94871794872,4187.179487179489,4203.076923076925,4207.692307692309,4215.897435897437,4235.897435897437,0.0,2047.0,2048.0,0.0,0.0,0.0,0.0,0.0,0.0,0.0,0.0,0.0,0.0,0.0,0.0,0.0,0.0,0.0,0.0,0.0,0.0
55.0,0.0,4255.897435897437,4149.23076923077,4211.282051282053,4203.589743589745,4186.153846153848,4200.000000000002,4164.615384615386,4170.769230769232,4197.435897435899,4185.641025641027,4192.8205128205145,4210.256410256412,4217.94871794872,4215.897435897437,0.0,2047.0,2048.0,0.0,0.0,0.0,0.0,0.0,0.0,0.0,0.0,0.0,0.0,0.0,0.0,0.0,0.0,0.0,0.0,0.0,0.0
56.0,0.0,4237.435897435899,4145.641025641027,4207.179487179489,4203.076923076925,4185.128205128207,4199.487179487181,4162.564102564104,4170.256410256412,4198.46153846154,4184.615384615386,4187.692307692309,4210.256410256412,4215.384615384617,4203.076923076925,0.0,2047.0,2048.0,0.0,0.0,0.0,0.0,0.0,0.0,0.0,0.0,0.0,0.0,0.0,0.0,0.0,0.0,0.0,0.0,0.0,0.0
57.0,0.0,4221.0256410256425,4155.897435897437,4200.000000000002,4202.051282051283,4186.153846153848,4205.641025641027,4169.23076923077,4170.256410256412,4200.512820512822,4184.615384615386,4188.71794871795,4211.282051282053,4203.076923076925,4192.307692307694,0.0,2047.0,2048.0,0.0,0.0,0.0,0.0,0.0,0.0,0.0,0.0,0.0,0.0,0.0,0.0,0.0,0.0,0.0,0.0,0.0,0.0
58.0,0.0,4202.051282051283,4147.179487179489,4191.794871794873,4191.282051282053,4187.179487179489,4205.641025641027,4172.307692307694,4167.692307692309,4198.97435897436,4184.615384615386,4184.102564102565,4210.769230769232,4188.20512820513,4178.97435897436,0.0,2047.0,2048.0,0.0,0.0,0.0,0.0,0.0,0.0,0.0,0.0,0.0,0.0,0.0,0.0,0.0,0.0,0.0,0.0,0.0,0.0
59.0,0.0,4181.0256410256425,4117.435897435899,4180.512820512822,4182.051282051283,4186.153846153848,4198.97435897436,4164.615384615386,4165.128205128207,4196.923076923078,4183.589743589745,4177.94871794872,4201.538461538463,4181.538461538463,4167.692307692309,0.0,2047.0,2048.0,0.0,0.0,0.0,0.0,0.0,0.0,0.0,0.0,0.0,0.0,0.0,0.0,0.0,0.0,0.0,0.0,0.0,0.0
60.0,0.0,4176.410256410258,4110.769230769232,4185.641025641027,4187.179487179489,4189.23076923077,4205.641025641027,4173.333333333335,4173.846153846155,4206.666666666668,4184.102564102565,4183.589743589745,4209.23076923077,4187.692307692309,4167.692307692309,0.0,2047.0,2048.0,0.0,0.0,0.0,0.0,0.0,0.0,0.0,0.0,0.0,0.0,0.0,0.0,0.0,0.0,0.0,0.0,0.0,0.0
61.0,0.0,4176.923076923078,4129.23076923077,4184.102564102565,4186.153846153848,4186.666666666668,4216.923076923078,4185.641025641027,4186.666666666668,4214.871794871797,4185.128205128207,4190.769230769232,4212.307692307694,4187.179487179489,4171.282051282053,0.0,2047.0,2048.0,0.0,0.0,0.0,0.0,0.0,0.0,0.0,0.0,0.0,0.0,0.0,0.0,0.0,0.0,0.0,0.0,0.0,0.0
62.0,0.0,4163.076923076925,4131.794871794873,4173.333333333335,4171.794871794873,4184.615384615386,4215.897435897437,4177.435897435899,4182.564102564104,4205.128205128207,4184.615384615386,4182.051282051283,4208.71794871795,4173.846153846155,4165.128205128207,0.0,2047.0,2048.0,0.0,0.0,0.0,0.0,0.0,0.0,0.0,0.0,0.0,0.0,0.0,0.0,0.0,0.0,0.0,0.0,0.0,0.0
63.0,0.0,4151.282051282053,4120.000000000002,4172.307692307694,4167.179487179489,4185.641025641027,4211.282051282053,4168.20512820513,4169.743589743592,4199.487179487181,4186.153846153848,4175.897435897437,4211.794871794873,4166.666666666668,4155.384615384617,0.0,2047.0,2048.0,0.0,0.0,0.0,0.0,0.0,0.0,0.0,0.0,0.0,0.0,0.0,0.0,0.0,0.0,0.0,0.0,0.0,0.0
64.0,0.0,4147.692307692309,4120.000000000002,4172.307692307694,4172.307692307694,4186.153846153848,4213.846153846155,4171.794871794873,4169.743589743592,4206.666666666668,4187.692307692309,4179.487179487181,4207.179487179489,4169.743589743592,4146.666666666668,679.0,2047.0,2048.0,0.0,0.0,0.0,0.0,4.0,0.0,0.0,0.0,0.0,0.0,0.0,0.0,0.0,0.0,0.0,0.0,4.0,4.0
65.0,0.0,4143.076923076925,4121.538461538463,4172.307692307694,4171.794871794873,4187.179487179489,4214.3589743589755,4173.846153846155,4174.871794871797,4207.179487179489,4185.641025641027,4177.435897435899,4207.692307692309,4164.615384615386,4138.46153846154,824.0,2047.0,2048.0,0.0,0.0,0.0,0.0,4.0,4.0,0.0,0.0,0.0,0.0,0.0,0.0,0.0,0.0,0.0,0.0,4.0,4.0
66.0,0.0,4138.97435897436,4115.897435897437,4169.23076923077,4169.743589743592,4185.128205128207,4212.8205128205145,4168.20512820513,4174.871794871797,4203.076923076925,4184.615384615386,4171.794871794873,4206.666666666668,4158.97435897436,4142.051282051283,800.0,2047.0,2048.0,0.0,0.0,4.0,0.0,4.0,4.0,0.0,0.0,0.0,0.0,0.0,0.0,0.0,0.0,0.0,0.0,4.0,4.0
67.0,0.0,4136.923076923078,4116.410256410258,4167.692307692309,4169.743589743592,4186.153846153848,4214.3589743589755,4167.692307692309,4171.794871794873,4201.538461538463,4187.179487179489,4171.794871794873,4205.128205128207,4160.000000000002,4150.769230769232,783.0,2047.0,2048.0,0.0,0.0,4.0,4.0,4.0,4.0,0.0,0.0,0.0,0.0,0.0,0.0,0.0,0.0,0.0,0.0,4.0,4.0
68.0,0.0,4134.871794871797,4117.94871794872,4169.743589743592,4169.23076923077,4186.666666666668,4217.435897435899,4175.897435897437,4169.23076923077,4199.487179487181,4186.666666666668,4172.8205128205145,4210.769230769232,4157.435897435899,4146.666666666668,0.0,2047.0,2048.0,0.0,0.0,4.0,4.0,4.0,4.0,0.0,0.0,0.0,0.0,0.0,0.0,0.0,0.0,0.0,0.0,4.0,4.0
69.0,0.0,4131.794871794873,4120.000000000002,4165.641025641027,4170.256410256412,4183.076923076925,4216.410256410258,4183.589743589745,4174.3589743589755,4206.666666666668,4185.128205128207,4175.897435897437,4206.666666666668,4156.410256410258,4138.46153846154,790.0,2047.0,2048.0,0.0,0.0,4.0,4.0,4.0,4.0,0.0,4.0,0.0,0.0,0.0,0.0,0.0,0.0,0.0,0.0,4.0,4.0
70.0,0.0,4130.769230769232,4125.128205128207,4165.128205128207,4171.794871794873,4186.153846153848,4212.307692307694,4184.102564102565,4181.538461538463,4211.282051282053,4185.641025641027,4177.435897435899,4207.179487179489,4161.0256410256425,4141.0256410256425,803.0,2047.0,2048.0,0.0,0.0,4.0,4.0,4.0,4.0,0.0,4.0,4.0,0.0,0.0,0.0,0.0,0.0,0.0,0.0,4.0,4.0
71.0,0.0,4130.256410256412,4120.512820512822,4168.20512820513,4171.282051282053,4186.153846153848,4213.846153846155,4183.076923076925,4183.076923076925,4206.153846153848,4185.641025641027,4172.8205128205145,4206.666666666668,4158.46153846154,4141.538461538463,802.0,2047.0,2048.0,0.0,0.0,4.0,4.0,4.0,4.0,0.0,4.0,4.0,4.0,0.0,0.0,0.0,0.0,0.0,0.0,4.0,4.0
72.0,0.0,4131.794871794873,4114.871794871797,4170.769230769232,4173.333333333335,4185.641025641027,4219.487179487181,4187.692307692309,4180.512820512822,4207.692307692309,4185.641025641027,4168.71794871795,4204.615384615386,4154.871794871797,4138.97435897436,644.0,2047.0,2048.0,0.0,0.0,4.0,4.0,4.0,4.0,0.0,4.0,4.0,4.0,4.0,0.0,0.0,0.0,0.0,0.0,4.0,4.0
73.0,0.0,4133.333333333335,4114.3589743589755,4169.23076923077,4173.846153846155,4187.692307692309,4220.000000000002,4188.20512820513,4175.897435897437,4207.692307692309,4186.153846153848,4171.282051282053,4207.179487179489,4156.410256410258,4139.487179487181,0.0,2047.0,2048.0,0.0,0.0,4.0,4.0,4.0,4.0,0.0,4.0,4.0,4.0,4.0,0.0,0.0,0.0,0.0,0.0,4.0,4.0
74.0,0.0,4127.179487179489,4109.23076923077,4161.0256410256425,4169.23076923077,4184.615384615386,4216.410256410258,4185.128205128207,4174.871794871797,4199.487179487181,4185.641025641027,4169.23076923077,4201.0256410256425,4154.3589743589755,4135.384615384617,859.0,2047.0,2048.0,0.0,0.0,4.0,4.0,4.0,4.0,0.0,4.0,4.0,4.0,4.0,0.0,0.0,0.0,4.0,0.0,4.0,4.0
75.0,0.0,4126.153846153848,4112.8205128205145,4165.128205128207,4170.769230769232,4185.641025641027,4222.564102564104,4185.128205128207,4181.538461538463,4206.153846153848,4185.641025641027,4168.71794871795,4206.153846153848,4157.94871794872,4134.3589743589755,845.0,2047.0,2048.0,0.0,0.0,4.0,4.0,4.0,4.0,0.0,4.0,4.0,4.0,4.0,0.0,0.0,0.0,4.0,4.0,4.0,4.0
76.0,0.0,4130.256410256412,4120.512820512822,4171.282051282053,4178.46153846154,4186.666666666668,4229.23076923077,4187.179487179489,4189.23076923077,4218.46153846154,4186.153846153848,4182.051282051283,4209.743589743592,4170.256410256412,4143.076923076925,845.0,2047.0,2048.0,0.0,0.0,4.0,4.0,4.0,4.0,0.0,4.0,4.0,4.0,4.0,0.0,4.0,0.0,4.0,4.0,4.0,4.0
77.0,0.0,4126.153846153848,4111.282051282053,4163.589743589745,4173.333333333335,4185.641025641027,4220.000000000002,4188.20512820513,4186.153846153848,4208.20512820513,4186.153846153848,4182.564102564104,4201.0256410256425,4164.102564102565,4141.0256410256425,179.0,2047.0,2048.0,0.0,0.0,4.0,4.0,4.0,4.0,0.0,4.0,4.0,4.0,4.0,0.0,4.0,2.0,4.0,4.0,4.0,4.0
78.0,0.0,4122.564102564104,4105.128205128207,4160.000000000002,4166.666666666668,4185.641025641027,4212.307692307694,4182.051282051283,4183.076923076925,4196.410256410258,4185.128205128207,4168.71794871795,4204.102564102565,4151.282051282053,4134.871794871797,859.0,2047.0,2048.0,0.0,0.0,4.0,4.0,4.0,4.0,0.0,4.0,4.0,4.0,4.0,0.0,4.0,2.0,4.0,4.0,4.0,4.0
79.0,0.0,4129.743589743592,4117.94871794872,4168.20512820513,4174.3589743589755,4184.102564102565,4217.94871794872,4182.051282051283,4186.666666666668,4205.128205128207,4185.641025641027,4173.333333333335,4205.641025641027,4161.538461538463,4142.564102564104,845.0,2047.0,2048.0,0.0,0.0,4.0,4.0,4.0,4.0,0.0,4.0,4.0,4.0,4.0,0.0,4.0,2.0,4.0,4.0,4.0,4.0
80.0,0.0,4138.46153846154,4119.487179487181,4177.435897435899,4178.97435897436,4187.692307692309,4220.000000000002,4193.333333333335,4187.692307692309,4211.282051282053,4185.641025641027,4185.128205128207,4209.743589743592,4172.307692307694,4148.71794871795,845.0,2047.0,2048.0,0.0,0.0,4.0,4.0,4.0,4.0,0.0,4.0,4.0,4.0,4.0,0.0,4.0,2.0,4.0,4.0,4.0,4.0
81.0,0.0,4133.333333333335,4108.71794871795,4173.846153846155,4174.871794871797,4186.666666666668,4214.871794871797,4195.384615384617,4184.615384615386,4206.153846153848,4183.589743589745,4180.512820512822,4208.71794871795,4166.666666666668,4144.615384615386,179.0,2047.0,2048.0,0.0,0.0,4.0,4.0,4.0,4.0,0.0,4.0,4.0,4.0,4.0,0.0,4.0,2.0,4.0,4.0,4.0,4.0
82.0,0.0,4133.846153846155,4113.333333333335,4173.333333333335,4178.97435897436,4183.589743589745,4214.3589743589755,4188.71794871795,4184.102564102565,4207.179487179489,4184.102564102565,4178.97435897436,4204.102564102565,4170.769230769232,4149.23076923077,859.0,2047.0,2048.0,0.0,0.0,4.0,4.0,4.0,4.0,0.0,4.0,4.0,4.0,4.0,0.0,4.0,2.0,4.0,4.0,4.0,4.0
83.0,0.0,4155.384615384617,4125.641025641027,4189.743589743592,4186.666666666668,4187.179487179489,4217.94871794872,4187.179487179489,4187.179487179489,4212.307692307694,4186.153846153848,4189.743589743592,4213.846153846155,4185.128205128207,4164.615384615386,845.0,2047.0,2048.0,0.0,0.0,4.0,4.0,4.0,4.0,0.0,4.0,4.0,4.0,4.0,0.0,4.0,2.0,4.0,4.0,4.0,4.0
84.0,0.0,4173.846153846155,4131.282051282053,4196.923076923078,4186.666666666668,4185.641025641027,4214.871794871797,4185.641025641027,4185.641025641027,4209.23076923077,4186.153846153848,4188.71794871795,4210.769230769232,4188.20512820513,4174.871794871797,845.0,2047.0,2048.0,0.0,0.0,4.0,4.0,4.0,4.0,0.0,4.0,4.0,4.0,4.0,0.0,4.0,2.0,4.0,4.0,4.0,4.0
85.0,0.0,4185.128205128207,4135.384615384617,4196.923076923078,4186.153846153848,4184.615384615386,4206.153846153848,4180.000000000002,4185.641025641027,4206.666666666668,4185.641025641027,4183.589743589745,4209.743589743592,4188.71794871795,4179.487179487181,179.0,2047.0,2048.0,0.0,0.0,4.0,4.0,4.0,4.0,0.0,4.0,4.0,4.0,4.0,0.0,4.0,2.0,4.0,4.0,4.0,4.0
86.0,0.0,4202.051282051283,4139.487179487181,4200.512820512822,4188.71794871795,4187.179487179489,4201.0256410256425,4180.512820512822,4190.769230769232,4207.179487179489,4185.128205128207,4190.256410256412,4213.333333333335,4200.000000000002,4189.743589743592,859.0,2047.0,2048.0,0.0,0.0,4.0,4.0,4.0,4.0,0.0,4.0,4.0,4.0,4.0,0.0,4.0,2.0,4.0,4.0,4.0,4.0
87.0,0.0,4225.641025641027,4146.666666666668,4206.153846153848,4189.743589743592,4189.23076923077,4200.000000000002,4181.538461538463,4184.102564102565,4202.051282051283,4184.102564102565,4195.897435897437,4208.20512820513,4209.23076923077,4205.641025641027,845.0,2047.0,2048.0,0.0,0.0,4.0,4.0,4.0,4.0,0.0,4.0,4.0,4.0,4.0,0.0,4.0,2.0,4.0,4.0,4.0,4.0
88.0,0.0,4250.256410256412,4161.538461538463,4216.923076923078,4201.538461538463,4189.23076923077,4199.487179487181,4175.384615384617,4177.435897435899,4197.94871794872,4184.102564102565,4198.97435897436,4212.8205128205145,4214.3589743589755,4223.076923076925,845.0,2047.0,2048.0,0.0,0.0,4.0,4.0,4.0,4.0,0.0,4.0,4.0,4.0,4.0,0.0,4.0,2.0,4.0,4.0,4.0,4.0
89.0,0.0,4268.71794871795,4168.71794871795,4222.051282051283,4210.769230769232,4185.641025641027,4198.46153846154,4169.743589743592,4184.615384615386,4202.051282051283,4185.128205128207,4202.051282051283,4212.307692307694,4223.589743589745,4234.3589743589755,179.0,2047.0,2048.0,0.0,0.0,4.0,4.0,4.0,4.0,0.0,4.0,4.0,4.0,4.0,0.0,4.0,2.0,4.0,4.0,4.0,4.0
90.0,0.0,4279.487179487181,4168.71794871795,4226.666666666668,4208.71794871795,4189.23076923077,4196.410256410258,4167.692307692309,4178.46153846154,4199.487179487181,4184.615384615386,4203.076923076925,4212.8205128205145,4225.641025641027,4242.564102564104,859.0,2047.0,2048.0,0.0,0.0,4.0,4.0,4.0,4.0,0.0,4.0,4.0,4.0,4.0,0.0,4.0,2.0,4.0,4.0,4.0,4.0
91.0,0.0,4289.743589743592,4181.0256410256425,4234.3589743589755,4217.94871794872,4189.23076923077,4202.051282051283,4172.307692307694,4164.102564102565,4195.897435897437,4184.102564102565,4206.666666666668,4215.384615384617,4223.076923076925,4252.307692307694,845.0,2047.0,2048.0,0.0,0.0,4.0,4.0,4.0,4.0,0.0,4.0,4.0,4.0,4.0,0.0,4.0,2.0,4.0,4.0,4.0,4.0
92.0,0.0,4290.256410256412,4188.20512820513,4233.333333333335,4229.743589743592,4182.564102564104,4213.846153846155,4183.076923076925,4176.410256410258,4204.102564102565,4184.615384615386,4211.794871794873,4211.282051282053,4231.794871794873,4253.333333333335,845.0,2047.0,2048.0,0.0,0.0,4.0,4.0,4.0,4.0,0.0,4.0,4.0,4.0,4.0,0.0,4.0,2.0,4.0,4.0,4.0,4.0
93.0,0.0,4280.512820512822,4176.410256410258,4230.769230769232,4226.666666666668,4183.589743589745,4218.97435897436,4187.179487179489,4192.307692307694,4213.333333333335,4185.641025641027,4212.8205128205145,4215.897435897437,4232.307692307694,4243.589743589745,179.0,2047.0,2048.0,0.0,0.0,4.0,4.0,4.0,4.0,0.0,4.0,4.0,4.0,4.0,0.0,4.0,2.0,4.0,4.0,4.0,4.0
94.0,0.0,4264.615384615386,4164.615384615386,4224.102564102565,4217.435897435899,4186.666666666668,4212.8205128205145,4184.102564102565,4185.641025641027,4206.666666666668,4186.666666666668,4208.20512820513,4211.282051282053,4222.051282051283,4233.333333333335,859.0,2047.0,2048.0,0.0,0.0,4.0,4.0,4.0,4.0,0.0,4.0,4.0,4.0,4.0,0.0,4.0,2.0,4.0,4.0,4.0,4.0
95.0,0.0,4240.512820512822,4152.8205128205145,4213.333333333335,4208.71794871795,4190.256410256412,4206.153846153848,4185.128205128207,4183.076923076925,4197.94871794872,4185.128205128207,4195.897435897437,4205.128205128207,4212.307692307694,4218.97435897436,845.0,2047.0,2048.0,0.0,0.0,4.0,4.0,4.0,4.0,0.0,4.0,4.0,4.0,4.0,0.0,4.0,2.0,4.0,4.0,4.0,4.0
96.0,0.0,4217.94871794872,4133.333333333335,4204.615384615386,4203.076923076925,4188.20512820513,4208.20512820513,4181.538461538463,4188.20512820513,4200.512820512822,4185.128205128207,4185.641025641027,4208.20512820513,4199.487179487181,4197.94871794872,845.0,2047.0,2048.0,0.0,0.0,4.0,4.0,4.0,4.0,0.0,4.0,4.0,4.0,4.0,0.0,4.0,2.0,4.0,4.0,4.0,4.0
97.0,0.0,4208.20512820513,4130.769230769232,4197.94871794872,4196.923076923078,4182.051282051283,4210.256410256412,4174.3589743589755,4183.589743589745,4203.076923076925,4186.666666666668,4191.794871794873,4207.179487179489,4191.282051282053,4186.666666666668,179.0,2047.0,2048.0,0.0,0.0,4.0,4.0,4.0,4.0,0.0,4.0,4.0,4.0,4.0,0.0,4.0,2.0,4.0,4.0,4.0,4.0
98.0,0.0,4198.97435897436,4144.615384615386,4195.384615384617,4182.564102564104,4185.641025641027,4206.666666666668,4173.846153846155,4181.0256410256425,4203.076923076925,4186.153846153848,4198.97435897436,4214.3589743589755,4196.923076923078,4188.71794871795,859.0,2047.0,2048.0,0.0,0.0,4.0,4.0,4.0,4.0,0.0,4.0,4.0,4.0,4.0,0.0,4.0,2.0,4.0,4.0,4.0,4.0
99.0,0.0,4183.589743589745,4138.97435897436,4188.20512820513,4173.333333333335,4186.153846153848,4202.051282051283,4170.256410256412,4185.128205128207,4208.71794871795,4185.128205128207,4193.846153846155,4212.8205128205145,4200.000000000002,4186.666666666668,845.0,2047.0,2048.0,0.0,0.0,4.0,4.0,4.0,4.0,0.0,4.0,4.0,4.0,4.0,0.0,4.0,2.0,4.0,4.0,4.0,4.0
100.0,0.0,4181.538461538463,4127.179487179489,4189.743589743592,4182.051282051283,4184.615384615386,4202.564102564104,4172.307692307694,4187.692307692309,4212.307692307694,4185.641025641027,4190.256410256412,4208.20512820513,4194.871794871797,4180.000000000002,845.0,2047.0,2048.0,0.0,0.0,4.0,4.0,4.0,4.0,0.0,4.0,4.0,4.0,4.0,0.0,4.0,2.0,4.0,4.0,4.0,4.0
101.0,0.0,4177.94871794872,4127.692307692309,4189.743589743592,4186.666666666668,4187.179487179489,4210.769230769232,4180.000000000002,4188.20512820513,4207.692307692309,4185.641025641027,4191.794871794873,4211.794871794873,4194.3589743589755,4174.871794871797,179.0,2047.0,2048.0,0.0,0.0,4.0,4.0,4.0,4.0,0.0,4.0,4.0,4.0,4.0,0.0,4.0,2.0,4.0,4.0,4.0,4.0
102.0,0.0,4153.846153846155,4125.641025641027,4174.871794871797,4175.897435897437,4186.666666666668,4212.307692307694,4180.000000000002,4187.692307692309,4203.589743589745,4185.128205128207,4186.666666666668,4206.666666666668,4188.71794871795,4166.153846153848,859.0,2047.0,2048.0,0.0,0.0,4.0,4.0,4.0,4.0,0.0,4.0,4.0,4.0,4.0,0.0,4.0,2.0,4.0,4.0,4.0,4.0
103.0,0.0,4141.0256410256425,4113.333333333335,4171.794871794873,4173.333333333335,4187.179487179489,4205.641025641027,4178.97435897436,4185.641025641027,4203.076923076925,4186.153846153848,4177.435897435899,4209.23076923077,4176.923076923078,4155.384615384617,845.0,2047.0,2048.0,0.0,0.0,4.0,4.0,4.0,4.0,0.0,4.0,4.0,4.0,4.0,0.0,4.0,2.0,4.0,4.0,4.0,4.0
104.0,0.0,4147.179487179489,4105.641025641027,4170.256410256412,4176.410256410258,4184.615384615386,4205.641025641027,4183.076923076925,4183.076923076925,4204.102564102565,4185.128205128207,4175.897435897437,4205.128205128207,4171.282051282053,4151.282051282053,845.0,2047.0,2048.0,0.0,0.0,4.0,4.0,4.0,4.0,0.0,4.0,4.0,4.0,4.0,0.0,4.0,2.0,4.0,4.0,4.0,4.0
105.0,0.0,4146.153846153848,4110.769230769232,4163.589743589745,4174.3589743589755,4185.641025641027,4212.8205128205145,4177.94871794872,4183.076923076925,4201.538461538463,4185.641025641027,4181.538461538463,4201.0256410256425,4168.71794871795,4154.3589743589755,179.0,2047.0,2048.0,0.0,0.0,4.0,4.0,4.0,4.0,0.0,4.0,4.0,4.0,4.0,0.0,4.0,2.0,4.0,4.0,4.0,4.0
106.0,0.0,4141.0256410256425,4114.3589743589755,4165.641025641027,4169.743589743592,4188.71794871795,4206.666666666668,4169.23076923077,4181.538461538463,4199.487179487181,4186.153846153848,4185.641025641027,4206.666666666668,4169.743589743592,4155.384615384617,859.0,2047.0,2048.0,0.0,0.0,4.0,4.0,4.0,4.0,0.0,4.0,4.0,4.0,4.0,0.0,4.0,2.0,4.0,4.0,4.0,4.0
107.0,0.0,4141.0256410256425,4109.743589743592,4171.794871794873,4172.307692307694,4187.179487179489,4196.923076923078,4177.435897435899,4182.051282051283,4205.128205128207,4184.615384615386,4183.589743589745,4202.564102564104,4169.23076923077,4153.333333333335,845.0,2047.0,2048.0,0.0,0.0,4.0,4.0,4.0,4.0,0.0,4.0,4.0,4.0,4.0,0.0,4.0,2.0,4.0,4.0,4.0,4.0
108.0,0.0,4143.589743589745,4111.794871794873,4175.897435897437,4182.051282051283,4187.179487179489,4199.487179487181,4185.128205128207,4189.23076923077,4214.3589743589755,4184.102564102565,4185.128205128207,4207.179487179489,4167.692307692309,4153.846153846155,845.0,2047.0,2048.0,0.0,0.0,4.0,4.0,4.0,4.0,0.0,4.0,4.0,4.0,4.0,0.0,4.0,2.0,4.0,4.0,4.0,4.0
109.0,0.0,4143.589743589745,4120.512820512822,4169.23076923077,4185.641025641027,4187.179487179489,4205.641025641027,4182.564102564104,4194.3589743589755,4217.435897435899,4185.128205128207,4189.23076923077,4207.692307692309,4174.871794871797,4155.384615384617,179.0,2047.0,2048.0,0.0,0.0,4.0,4.0,4.0,4.0,0.0,4.0,4.0,4.0,4.0,0.0,4.0,2.0,4.0,4.0,4.0,4.0
110.0,0.0,4146.153846153848,4125.128205128207,4168.20512820513,4185.128205128207,4186.153846153848,4210.769230769232,4181.538461538463,4189.23076923077,4213.846153846155,4185.128205128207,4186.666666666668,4202.051282051283,4181.0256410256425,4156.923076923078,859.0,2047.0,2048.0,0.0,0.0,4.0,4.0,4.0,4.0,0.0,4.0,4.0,4.0,4.0,0.0,4.0,2.0,4.0,4.0,4.0,4.0
111.0,0.0,4151.282051282053,4124.102564102565,4178.46153846154,4188.71794871795,4185.128205128207,4213.846153846155,4186.666666666668,4185.128205128207,4210.769230769232,4185.128205128207,4185.128205128207,4208.71794871795,4176.410256410258,4158.46153846154,845.0,2047.0,2048.0,0.0,0.0,4.0,4.0,4.0,4.0,0.0,4.0,4.0,4.0,4.0,0.0,4.0,2.0,4.0,4.0,4.0,4.0
112.0,0.0,4145.128205128207,4121.538461538463,4174.871794871797,4186.666666666668,4185.641025641027,4212.8205128205145,4188.20512820513,4187.692307692309,4211.794871794873,4184.615384615386,4185.641025641027,4204.615384615386,4170.256410256412,4156.410256410258,845.0,2047.0,2048.0,0.0,0.0,4.0,4.0,4.0,4.0,0.0,4.0,4.0,4.0,4.0,0.0,4.0,2.0,4.0,4.0,4.0,4.0
113.0,0.0,4135.897435897437,4116.923076923078,4164.102564102565,4177.435897435899,4188.20512820513,4213.333333333335,4183.589743589745,4186.666666666668,4213.333333333335,4185.128205128207,4177.94871794872,4201.0256410256425,4167.179487179489,4149.743589743592,179.0,2047.0,2048.0,0.0,0.0,4.0,4.0,4.0,4.0,0.0,4.0,4.0,4.0,4.0,0.0,4.0,2.0,4.0,4.0,4.0,4.0
114.0,0.0,4135.384615384617,4111.282051282053,4162.564102564104,4170.769230769232,4184.102564102565,4215.384615384617,4184.615384615386,4185.641025641027,4213.333333333335,4186.153846153848,4172.307692307694,4200.000000000002,4169.23076923077,4149.23076923077,859.0,2047.0,2048.0,0.0,0.0,4.0,4.0,4.0,4.0,0.0,4.0,4.0,4.0,4.0,0.0,4.0,2.0,4.0,4.0,4.0,4.0
115.0,0.0,4136.923076923078,4110.769230769232,4166.666666666668,4171.282051282053,4185.641025641027,4214.3589743589755,4187.692307692309,4188.20512820513,4212.8205128205145,4186.153846153848,4173.333333333335,4198.97435897436,4170.256410256412,4151.794871794873,845.0,2047.0,2048.0,0.0,0.0,4.0,4.0,4.0,4.0,0.0,4.0,4.0,4.0,4.0,0.0,4.0,2.0,4.0,4.0,4.0,4.0
116.0,0.0,4134.871794871797,4109.743589743592,4167.179487179489,4172.8205128205145,4190.769230769232,4214.3589743589755,4186.666666666668,4186.153846153848,4212.307692307694,4185.641025641027,4171.282051282053,4206.153846153848,4164.615384615386,4146.666666666668,845.0,2047.0,2048.0,0.0,0.0,4.0,4.0,4.0,4.0,0.0,4.0,4.0,4.0,4.0,0.0,4.0,2.0,4.0,4.0,4.0,4.0
117.0,0.0,4132.8205128205145,4104.615384615386,4163.076923076925,4170.256410256412,4185.128205128207,4214.3589743589755,4185.128205128207,4182.051282051283,4209.23076923077,4185.641025641027,4165.641025641027,4202.564102564104,4157.94871794872,4142.564102564104,179.0,2047.0,2048.0,0.0,0.0,4.0,4.0,4.0,4.0,0.0,4.0,4.0,4.0,4.0,0.0,4.0,2.0,4.0,4.0,4.0,4.0
118.0,0.0,4142.051282051283,4110.256410256412,4173.333333333335,4172.8205128205145,4184.102564102565,4214.871794871797,4188.20512820513,4185.128205128207,4209.23076923077,4185.128205128207,4169.23076923077,4204.615384615386,4164.102564102565,4150.769230769232,859.0,2047.0,2048.0,0.0,0.0,4.0,4.0,4.0,4.0,0.0,4.0,4.0,4.0,4.0,0.0,4.0,2.0,4.0,4.0,4.0,4.0
119.0,0.0,4148.20512820513,4116.923076923078,4177.94871794872,4180.000000000002,4185.128205128207,4213.333333333335,4188.20512820513,4188.71794871795,4213.846153846155,4185.128205128207,4178.97435897436,4209.23076923077,4173.846153846155,4157.435897435899,845.0,2047.0,2048.0,0.0,0.0,4.0,4.0,4.0,4.0,0.0,4.0,4.0,4.0,4.0,0.0,4.0,2.0,4.0,4.0,4.0,4.0
120.0,0.0,4143.076923076925,4110.256410256412,4167.692307692309,4181.538461538463,4184.102564102565,4213.846153846155,4186.666666666668,4186.666666666668,4212.307692307694,4185.128205128207,4181.0256410256425,4204.615384615386,4170.256410256412,4152.8205128205145,845.0,2047.0,2048.0,0.0,0.0,4.0,4.0,4.0,4.0,0.0,4.0,4.0,4.0,4.0,0.0,4.0,2.0,4.0,4.0,4.0,4.0
121.0,0.0,4146.153846153848,4111.794871794873,4175.384615384617,4184.102564102565,4186.666666666668,4218.97435897436,4192.8205128205145,4192.8205128205145,4213.846153846155,4184.615384615386,4185.128205128207,4209.23076923077,4169.23076923077,4159.487179487181,179.0,2047.0,2048.0,0.0,0.0,4.0,4.0,4.0,4.0,0.0,4.0,4.0,4.0,4.0,0.0,4.0,2.0,4.0,4.0,4.0,4.0
122.0,0.0,4152.8205128205145,4123.589743589745,4184.102564102565,4188.71794871795,4186.153846153848,4222.051282051283,4201.0256410256425,4202.564102564104,4222.051282051283,4185.128205128207,4190.769230769232,4208.71794871795,4180.512820512822,4167.179487179489,859.0,2047.0,2048.0,0.0,0.0,4.0,4.0,4.0,4.0,0.0,4.0,4.0,4.0,4.0,0.0,4.0,2.0,4.0,4.0,4.0,4.0
123.0,0.0,4149.23076923077,4121.538461538463,4174.871794871797,4183.589743589745,4185.128205128207,4219.487179487181,4201.538461538463,4202.564102564104,4223.076923076925,4185.128205128207,4186.666666666668,4207.179487179489,4181.538461538463,4157.94871794872,845.0,2047.0,2048.0,0.0,0.0,4.0,4.0,4.0,4.0,0.0,4.0,4.0,4.0,4.0,0.0,4.0,2.0,4.0,4.0,4.0,4.0
124.0,0.0,4140.512820512822,4108.71794871795,4162.564102564104,4176.923076923078,4185.128205128207,4216.923076923078,4198.97435897436,4198.97435897436,4218.97435897436,4185.641025641027,4185.641025641027,4205.128205128207,4174.871794871797,4154.3589743589755,845.0,2047.0,2048.0,0.0,0.0,4.0,4.0,4.0,4.0,0.0,4.0,4.0,4.0,4.0,0.0,4.0,2.0,4.0,4.0,4.0,4.0
125.0,0.0,4141.538461538463,4107.692307692309,4160.000000000002,4179.487179487181,4187.179487179489,4217.435897435899,4197.94871794872,4201.538461538463,4218.46153846154,4186.153846153848,4193.333333333335,4201.0256410256425,4180.000000000002,4162.051282051283,179.0,2047.0,2048.0,0.0,0.0,4.0,4.0,4.0,4.0,0.0,4.0,4.0,4.0,4.0,0.0,4.0,2.0,4.0,4.0,4.0,4.0
126.0,0.0,4146.153846153848,4108.71794871795,4164.615384615386,4177.94871794872,4188.71794871795,4220.000000000002,4201.538461538463,4205.128205128207,4218.97435897436,4186.153846153848,4190.769230769232,4208.20512820513,4181.538461538463,4162.564102564104,859.0,2047.0,2048.0,0.0,0.0,4.0,4.0,4.0,4.0,0.0,4.0,4.0,4.0,4.0,0.0,4.0,2.0,4.0,4.0,4.0,4.0
127.0,0.0,4143.589743589745,4103.076923076925,4164.615384615386,4169.23076923077,4183.076923076925,4214.3589743589755,4203.076923076925,4196.923076923078,4216.410256410258,4186.153846153848,4182.564102564104,4206.153846153848,4170.769230769232,4158.46153846154,845.0,2047.0,2048.0,0.0,0.0,4.0,4.0,4.0,4.0,0.0,4.0,4.0,4.0,4.0,0.0,4.0,2.0,4.0,4.0,4.0,4.0
128.0,0.0,4148.71794871795,4106.666666666668,4168.71794871795,4173.333333333335,4181.538461538463,4203.589743589745,4191.282051282053,4187.179487179489,4212.307692307694,4185.128205128207,4183.589743589745,4208.20512820513,4173.846153846155,4162.051282051283,845.0,2047.0,2048.0,0.0,0.0,4.0,4.0,4.0,4.0,0.0,4.0,4.0,4.0,4.0,0.0,4.0,2.0,4.0,4.0,4.0,4.0
0.0,0.0,4167.692307692309,4117.94871794872,4175.384615384617,4182.564102564104,4184.615384615386,4200.000000000002,4177.435897435899,4185.128205128207,4208.20512820513,4184.615384615386,4189.743589743592,4215.384615384617,4186.153846153848,4173.333333333335,679.0,2047.0,2048.0,0.0,0.0,4.0,4.0,4.0,4.0,0.0,4.0,4.0,4.0,4.0,0.0,4.0,2.0,4.0,4.0,4.0,4.0
1.0,0.0,4189.23076923077,4126.666666666668,4181.538461538463,4187.692307692309,4186.153846153848,4203.076923076925,4180.000000000002,4186.153846153848,4207.692307692309,4185.641025641027,4194.871794871797,4209.23076923077,4195.897435897437,4189.23076923077,824.0,2047.0,2048.0,0.0,0.0,4.0,4.0,4.0,4.0,0.0,4.0,4.0,4.0,4.0,0.0,4.0,2.0,4.0,4.0,4.0,4.0
2.0,0.0,4211.282051282053,4137.94871794872,4197.94871794872,4195.897435897437,4188.71794871795,4201.0256410256425,4184.615384615386,4184.102564102565,4207.179487179489,4185.641025641027,4199.487179487181,4213.333333333335,4209.23076923077,4204.615384615386,800.0,2047.0,2048.0,0.0,0.0,4.0,4.0,4.0,4.0,0.0,4.0,4.0,4.0,4.0,0.0,4.0,2.0,4.0,4.0,4.0,4.0
3.0,0.0,4231.794871794873,4148.20512820513,4207.179487179489,4204.102564102565,4186.153846153848,4197.94871794872,4183.076923076925,4185.128205128207,4203.076923076925,4185.128205128207,4206.153846153848,4211.794871794873,4216.923076923078,4218.46153846154,783.0,2047.0,2048.0,0.0,0.0,4.0,4.0,4.0,4.0,0.0,4.0,4.0,4.0,4.0,0.0,4.0,2.0,4.0,4.0,4.0,4.0
4.0,0.0,4260.512820512822,4161.0256410256425,4214.871794871797,4211.282051282053,4183.589743589745,4201.538461538463,4183.589743589745,4189.23076923077,4205.641025641027,4185.641025641027,4213.846153846155,4211.794871794873,4224.102564102565,4238.97435897436,0.0,2047.0,2048.0,0.0,0.0,4.0,4.0,4.0,4.0,0.0,4.0,4.0,4.0,4.0,0.0,4.0,2.0,4.0,4.0,4.0,4.0
5.0,0.0,4284.102564102565,4170.256410256412,4224.102564102565,4218.46153846154,4184.102564102565,4201.538461538463,4185.128205128207,4184.615384615386,4203.589743589745,4186.153846153848,4213.333333333335,4219.487179487181,4236.410256410258,4253.846153846155,780.0,2047.0,2048.0,0.0,0.0,4.0,4.0,4.0,4.0,0.0,4.0,4.0,4.0,4.0,0.0,4.0,2.0,4.0,4.0,4.0,4.0
6.0,0.0,4288.20512820513,4164.615384615386,4224.102564102565,4220.000000000002,4183.589743589745,4196.923076923078,4183.076923076925,4172.307692307694,4188.20512820513,4186.666666666668,4202.051282051283,4212.8205128205145,4230.769230769232,4250.256410256412,803.0,2047.0,2048.0,0.0,0.0,4.0,4.0,4.0,4.0,0.0,4.0,4.0,4.0,4.0,0.0,4.0,2.0,4.0,4.0,4.0,4.0
7.0,0.0,4288.20512820513,4164.102564102565,4228.71794871795,4217.435897435899,4186.666666666668,4195.384615384617,4173.333333333335,4166.666666666668,4186.153846153848,4186.153846153848,4198.97435897436,4212.8205128205145,4217.94871794872,4247.692307692309,760.0,2047.0,2048.0,0.0,0.0,4.0,4.0,4.0,4.0,0.0,4.0,4.0,4.0,4.0,0.0,4.0,2.0,4.0,4.0,4.0,4.0
8.0,0.0,4285.128205128207,4166.666666666668,4230.256410256412,4218.97435897436,4186.153846153848,4200.000000000002,4165.641025641027,4174.3589743589755,4200.000000000002,4185.128205128207,4205.128205128207,4212.307692307694,4218.97435897436,4249.743589743592,644.0,2047.0,2048.0,0.0,0.0,4.0,4.0,4.0,4.0,0.0,4.0,4.0,4.0,4.0,0.0,4.0,2.0,4.0,4.0,4.0,4.0
9.0,0.0,4262.564102564104,4149.743589743592,4217.94871794872,4210.256410256412,4184.615384615386,4204.615384615386,4175.897435897437,4185.128205128207,4203.076923076925,4186.666666666668,4196.923076923078,4208.71794871795,4205.128205128207,4233.333333333335,0.0,2047.0,2048.0,0.0,0.0,4.0,4.0,4.0,4.0,0.0,4.0,4.0,4.0,4.0,0.0,4.0,2.0,4.0,4.0,4.0,4.0
10.0,0.0,4235.897435897437,4136.923076923078,4198.97435897436,4185.641025641027,4183.076923076925,4205.128205128207,4187.692307692309,4186.153846153848,4198.97435897436,4186.666666666668,4181.0256410256425,4209.743589743592,4178.46153846154,4206.666666666668,859.0,2047.0,2048.0,0.0,0.0,4.0,4.0,4.0,4.0,0.0,4.0,4.0,4.0,4.0,0.0,4.0,2.0,4.0,4.0,4.0,4.0
11.0,0.0,4226.666666666668,4140.000000000002,4189.743589743592,4178.46153846154,4182.051282051283,4202.564102564104,4185.641025641027,4181.0256410256425,4200.512820512822,4184.102564102565,4175.897435897437,4204.615384615386,4176.410256410258,4194.871794871797,845.0,2047.0,2048.0,0.0,0.0,4.0,4.0,4.0,4.0,0.0,4.0,4.0,4.0,4.0,0.0,4.0,2.0,4.0,4.0,4.0,4.0
12.0,0.0,4229.23076923077,4137.94871794872,4201.0256410256425,4197.94871794872,4187.179487179489,4203.589743589745,4184.102564102565,4182.564102564104,4205.128205128207,4184.615384615386,4185.128205128207,4212.307692307694,4193.846153846155,4203.076923076925,829.0,2047.0,2048.0,0.0,0.0,4.0,4.0,4.0,4.0,0.0,4.0,4.0,4.0,4.0,0.0,4.0,2.0,4.0,4.0,4.0,4.0
13.0,0.0,4223.589743589745,4135.897435897437,4203.589743589745,4200.000000000002,4185.128205128207,4209.743589743592,4188.20512820513,4187.692307692309,4205.641025641027,4185.641025641027,4191.794871794873,4214.871794871797,4200.512820512822,4207.179487179489,181.0,2047.0,2048.0,0.0,0.0,4.0,4.0,4.0,4.0,0.0,4.0,4.0,4.0,4.0,0.0,4.0,2.0,4.0,4.0,4.0,4.0
14.0,0.0,4201.538461538463,4138.97435897436,4190.256410256412,4182.564102564104,4183.589743589745,4207.179487179489,4187.179487179489,4189.23076923077,4203.076923076925,4185.641025641027,4187.179487179489,4208.20512820513,4190.256410256412,4193.333333333335,859.0,2047.0,2048.0,0.0,0.0,4.0,4.0,4.0,4.0,0.0,4.0,4.0,4.0,4.0,0.0,4.0,2.0,4.0,4.0,4.0,4.0
15.0,0.0,4187.179487179489,4126.666666666668,4183.589743589745,4180.000000000002,4187.179487179489,4202.564102564104,4185.641025641027,4187.692307692309,4204.102564102565,4185.641025641027,4186.666666666668,4210.256410256412,4180.000000000002,4181.0256410256425,845.0,2047.0,2048.0,0.0,0.0,4.0,4.0,4.0,4.0,0.0,4.0,4.0,4.0,4.0,0.0,4.0,2.0,4.0,4.0,4.0,4.0
16.0,0.0,4189.743589743592,4117.94871794872,4185.128205128207,4189.743589743592,4185.128205128207,4205.641025641027,4186.153846153848,4189.23076923077,4211.794871794873,4184.615384615386,4193.333333333335,4209.23076923077,4182.564102564104,4184.615384615386,0.0,2047.0,2048.0,0.0,0.0,4.0,4.0,4.0,4.0,0.0,4.0,4.0,4.0,4.0,0.0,4.0,2.0,4.0,4.0,4.0,4.0
17.0,0.0,4185.128205128207,4124.615384615386,4188.20512820513,4188.71794871795,4184.615384615386,4209.23076923077,4183.076923076925,4190.769230769232,4215.384615384617,4184.615384615386,4192.307692307694,4213.846153846155,4179.487179487181,4185.641025641027,0.0,2047.0,2048.0,0.0,0.0,4.0,4.0,4.0,4.0,0.0,4.0,4.0,4.0,4.0,0.0,4.0,2.0,4.0,4.0,4.0,4.0
18.0,0.0,4167.692307692309,4122.564102564104,4180.512820512822,4178.97435897436,4184.615384615386,4207.692307692309,4184.615384615386,4192.307692307694,4210.769230769232,4185.641025641027,4186.153846153848,4212.307692307694,4169.743589743592,4175.897435897437,0.0,2047.0,2048.0,0.0,0.0,4.0,4.0,4.0,4.0,0.0,4.0,4.0,4.0,4.0,0.0,4.0,2.0,4.0,4.0,4.0,4.0
19.0,0.0,4160.512820512822,4109.743589743592,4172.8205128205145,4175.384615384617,4184.615384615386,4204.615384615386,4187.179487179489,4190.769230769232,4204.102564102565,4184.615384615386,4181.538461538463,4203.076923076925,4165.641025641027,4165.128205128207,0.0,2047.0,2048.0,0.0,0.0,4.0,4.0,4.0,4.0,0.0,4.0,4.0,4.0,4.0,0.0,4.0,2.0,4.0,4.0,4.0,4.0
20.0,0.0,4160.000000000002,4102.051282051283,4174.871794871797,4176.410256410258,4186.666666666668,4202.564102564104,4184.102564102565,4184.102564102565,4201.0256410256425,4183.589743589745,4175.897435897437,4205.128205128207,4158.97435897436,4159.487179487181,0.0,2047.0,2048.0,0.0,0.0,4.0,4.0,4.0,4.0,0.0,4.0,4.0,4.0,4.0,0.0,4.0,2.0,4.0,4.0,4.0,4.0
21.0,0.0,4151.282051282053,4106.153846153848,4172.307692307694,4171.794871794873,4185.128205128207,4200.000000000002,4182.051282051283,4183.076923076925,4202.051282051283,4185.641025641027,4171.282051282053,4201.0256410256425,4152.307692307694,4154.871794871797,0.0,2047.0,2048.0,0.0,0.0,4.0,4.0,4.0,4.0,0.0,4.0,4.0,4.0,4.0,0.0,4.0,2.0,4.0,4.0,4.0,4.0
22.0,0.0,4152.307692307694,4117.94871794872,4174.3589743589755,4168.20512820513,4185.128205128207,4201.0256410256425,4183.589743589745,4184.615384615386,4201.538461538463,4187.179487179489,4170.256410256412,4204.615384615386,4151.794871794873,4153.846153846155,0.0,2047.0,2048.0,0.0,0.0,4.0,4.0,4.0,4.0,0.0,4.0,4.0,4.0,4.0,0.0,4.0,2.0,4.0,4.0,4.0,4.0
23.0,0.0,4158.46153846154,4120.000000000002,4180.512820512822,4177.435897435899,4184.102564102565,4200.512820512822,4184.615384615386,4183.076923076925,4201.0256410256425,4187.179487179489,4174.3589743589755,4210.769230769232,4155.897435897437,4161.538461538463,0.0,2047.0,2048.0,0.0,0.0,4.0,4.0,4.0,4.0,0.0,4.0,4.0,4.0,4.0,0.0,4.0,2.0,4.0,4.0,4.0,4.0
24.0,0.0,4153.333333333335,4110.769230769232,4179.487179487181,4184.615384615386,4184.102564102565,4200.512820512822,4184.615384615386,4190.256410256412,4202.051282051283,4186.153846153848,4178.46153846154,4205.641025641027,4157.435897435899,4168.71794871795,0.0,2047.0,2048.0,0.0,0.0,4.0,4.0,4.0,4.0,0.0,4.0,4.0,4.0,4.0,0.0,4.0,2.0,4.0,4.0,4.0,4.0
25.0,0.0,4144.102564102565,4107.179487179489,4176.923076923078,4177.435897435899,4186.153846153848,4203.076923076925,4186.153846153848,4197.94871794872,4203.076923076925,4184.615384615386,4176.923076923078,4208.71794871795,4156.923076923078,4161.0256410256425,0.0,2047.0,2048.0,0.0,0.0,4.0,4.0,4.0,4.0,0.0,4.0,4.0,4.0,4.0,0.0,4.0,2.0,4.0,4.0,4.0,4.0
26.0,0.0,4133.333333333335,4104.102564102565,4165.128205128207,4169.23076923077,4184.615384615386,4203.589743589745,4186.666666666668,4190.769230769232,4201.538461538463,4184.615384615386,4168.71794871795,4203.589743589745,4153.846153846155,4149.743589743592,0.0,2047.0,2048.0,0.0,0.0,4.0,4.0,4.0,4.0,0.0,4.0,4.0,4.0,4.0,0.0,4.0,2.0,4.0,4.0,4.0,4.0
27.0,0.0,4126.666666666668,4097.94871794872,4157.94871794872,4169.743589743592,4185.641025641027,4200.000000000002,4184.615384615386,4179.487179487181,4198.46153846154,4185.128205128207,4164.615384615386,4202.051282051283,4150.769230769232,4148.20512820513,0.0,2047.0,2048.0,0.0,0.0,4.0,4.0,4.0,4.0,0.0,4.0,4.0,4.0,4.0,0.0,4.0,2.0,4.0,4.0,4.0,4.0
28.0,0.0,4134.871794871797,4099.487179487181,4163.076923076925,4175.897435897437,4184.102564102565,4199.487179487181,4186.153846153848,4184.615384615386,4199.487179487181,4185.128205128207,4171.794871794873,4208.71794871795,4155.897435897437,4152.307692307694,0.0,2047.0,2048.0,0.0,0.0,4.0,4.0,4.0,4.0,0.0,4.0,4.0,4.0,4.0,0.0,4.0,2.0,4.0,4.0,4.0,4.0
29.0,0.0,4144.102564102565,4107.179487179489,4169.743589743592,4175.897435897437,4183.076923076925,4211.794871794873,4197.435897435899,4198.46153846154,4210.769230769232,4186.153846153848,4182.564102564104,4207.692307692309,4165.641025641027,4157.94871794872,0.0,2047.0,2048.0,0.0,0.0,4.0,4.0,4.0,4.0,0.0,4.0,4.0,4.0,4.0,0.0,4.0,2.0,4.0,4.0,4.0,4.0
30.0,0.0,4145.641025641027,4109.23076923077,4175.897435897437,4172.307692307694,4186.666666666668,4215.897435897437,4200.512820512822,4201.538461538463,4217.435897435899,4186.153846153848,4186.666666666668,4209.743589743592,4172.307692307694,4167.179487179489,0.0,2047.0,2048.0,0.0,0.0,4.0,4.0,4.0,4.0,0.0,4.0,4.0,4.0,4.0,0.0,4.0,2.0,4.0,4.0,4.0,4.0
31.0,0.0,4144.102564102565,4106.153846153848,4173.846153846155,4172.307692307694,4184.102564102565,4204.615384615386,4190.256410256412,4191.794871794873,4204.615384615386,4185.128205128207,4183.076923076925,4202.564102564104,4171.282051282053,4169.743589743592,0.0,2047.0,2048.0,0.0,0.0,4.0,4.0,4.0,4.0,0.0,4.0,4.0,4.0,4.0,0.0,4.0,2.0,4.0,4.0,4.0,4.0
32.0,0.0,4143.589743589745,4105.128205128207,4173.333333333335,4176.923076923078,4185.641025641027,4206.153846153848,4191.794871794873,4187.692307692309,4198.97435897436,4185.641025641027,4181.538461538463,4202.564102564104,4167.692307692309,4164.102564102565,0.0,2047.0,2048.0,0.0,0.0,4.0,4.0,4.0,4.0,0.0,4.0,4.0,4.0,4.0,0.0,4.0,2.0,4.0,4.0,4.0,4.0
33.0,0.0,4145.641025641027,4105.128205128207,4172.8205128205145,4182.564102564104,4186.666666666668,4219.487179487181,4202.051282051283,4196.410256410258,4213.333333333335,4186.666666666668,4184.615384615386,4208.20512820513,4166.666666666668,4158.97435897436,0.0,2047.0,2048.0,0.0,0.0,4.0,4.0,4.0,4.0,0.0,4.0,4.0,4.0,4.0,0.0,4.0,2.0,4.0,4.0,4.0,4.0
34.0,0.0,4143.589743589745,4107.179487179489,4169.23076923077,4181.538461538463,4184.615384615386,4220.000000000002,4200.512820512822,4199.487179487181,4217.435897435899,4186.153846153848,4184.102564102565,4205.128205128207,4166.153846153848,4155.384615384617,0.0,2047.0,2048.0,0.0,0.0,4.0,4.0,4.0,4.0,0.0,4.0,4.0,4.0,4.0,0.0,4.0,2.0,4.0,4.0,4.0,4.0
35.0,0.0,4143.589743589745,4107.179487179489,4174.3589743589755,4179.487179487181,4186.153846153848,4212.307692307694,4195.384615384617,4189.743589743592,4202.564102564104,4185.128205128207,4177.435897435899,4209.23076923077,4165.128205128207,4155.897435897437,0.0,2047.0,2048.0,0.0,0.0,4.0,4.0,4.0,4.0,0.0,4.0,4.0,4.0,4.0,0.0,4.0,2.0,4.0,4.0,4.0,4.0
36.0,0.0,4150.769230769232,4103.076923076925,4178.46153846154,4181.0256410256425,4185.128205128207,4210.769230769232,4195.384615384617,4186.153846153848,4201.538461538463,4185.128205128207,4177.435897435899,4205.128205128207,4164.102564102565,4162.564102564104,0.0,2047.0,2048.0,0.0,0.0,4.0,4.0,4.0,4.0,0.0,4.0,4.0,4.0,4.0,0.0,4.0,2.0,4.0,4.0,4.0,4.0
37.0,0.0,4164.615384615386,4108.71794871795,4183.076923076925,4187.692307692309,4184.102564102565,4212.8205128205145,4197.94871794872,4194.871794871797,4212.307692307694,4185.641025641027,4187.179487179489,4204.102564102565,4172.307692307694,4170.769230769232,0.0,2047.0,2048.0,0.0,0.0,4.0,4.0,4.0,4.0,0.0,4.0,4.0,4.0,4.0,0.0,4.0,2.0,4.0,4.0,4.0,4.0
38.0,0.0,4180.000000000002,4120.512820512822,4190.769230769232,4196.410256410258,4185.128205128207,4212.307692307694,4195.897435897437,4196.923076923078,4210.256410256412,4185.641025641027,4192.8205128205145,4211.794871794873,4182.564102564104,4182.051282051283,0.0,2047.0,2048.0,0.0,0.0,4.0,4.0,4.0,4.0,0.0,4.0,4.0,4.0,4.0,0.0,4.0,2.0,4.0,4.0,4.0,4.0
39.0,0.0,4188.71794871795,4124.102564102565,4192.307692307694,4195.897435897437,4185.128205128207,4204.102564102565,4192.307692307694,4190.769230769232,4202.564102564104,4184.615384615386,4191.794871794873,4206.153846153848,4183.589743589745,4190.256410256412,0.0,2047.0,2048.0,0.0,0.0,4.0,4.0,4.0,4.0,0.0,4.0,4.0,4.0,4.0,0.0,4.0,2.0,4.0,4.0,4.0,4.0
40.0,0.0,4201.538461538463,4125.128205128207,4197.435897435899,4191.282051282053,4187.179487179489,4200.000000000002,4193.333333333335,4188.20512820513,4203.589743589745,4184.102564102565,4194.871794871797,4209.23076923077,4188.20512820513,4197.435897435899,0.0,2047.0,2048.0,0.0,0.0,4.0,4.0,4.0,4.0,0.0,4.0,4.0,4.0,4.0,0.0,4.0,2.0,4.0,4.0,4.0,4.0
41.0,0.0,4222.051282051283,4132.307692307694,4206.153846153848,4191.794871794873,4185.128205128207,4204.102564102565,4191.282051282053,4189.743589743592,4206.153846153848,4186.153846153848,4200.512820512822,4213.333333333335,4204.102564102565,4214.3589743589755,0.0,2047.0,2048.0,0.0,0.0,4.0,4.0,4.0,4.0,0.0,4.0,4.0,4.0,4.0,0.0,4.0,2.0,4.0,4.0,4.0,4.0
42.0,0.0,4247.179487179489,4146.153846153848,4216.410256410258,4202.564102564104,4182.564102564104,4198.97435897436,4179.487179487181,4187.692307692309,4202.051282051283,4186.153846153848,4201.538461538463,4212.307692307694,4215.384615384617,4230.769230769232,0.0,2047.0,2048.0,0.0,0.0,4.0,4.0,4.0,4.0,0.0,4.0,4.0,4.0,4.0,0.0,4.0,2.0,4.0,4.0,4.0,4.0
43.0,0.0,4268.71794871795,4159.487179487181,4225.641025641027,4213.333333333335,4183.076923076925,4193.846153846155,4183.076923076925,4185.128205128207,4200.000000000002,4184.615384615386,4202.564102564104,4211.282051282053,4220.000000000002,4241.0256410256425,0.0,2047.0,2048.0,0.0,0.0,4.0,4.0,4.0,4.0,0.0,4.0,4.0,4.0,4.0,0.0,4.0,2.0,4.0,4.0,4.0,4.0
44.0,0.0,4284.615384615386,4166.153846153848,4229.743589743592,4213.846153846155,4183.589743589745,4200.000000000002,4201.0256410256425,4186.153846153848,4200.512820512822,4185.128205128207,4210.256410256412,4209.743589743592,4232.8205128205145,4252.8205128205145,0.0,2047.0,2048.0,0.0,0.0,4.0,4.0,4.0,4.0,0.0,4.0,4.0,4.0,4.0,0.0,4.0,2.0,4.0,4.0,4.0,4.0
45.0,0.0,4301.538461538463,4172.8205128205145,4240.512820512822,4219.487179487181,4186.153846153848,4202.051282051283,4197.435897435899,4189.23076923077,4201.538461538463,4185.641025641027,4218.97435897436,4217.94871794872,4245.128205128207,4268.71794871795,0.0,2047.0,2048.0,0.0,0.0,4.0,4.0,4.0,4.0,0.0,4.0,4.0,4.0,4.0,0.0,4.0,2.0,4.0,4.0,4.0,4.0
46.0,0.0,4314.3589743589755,4184.615384615386,4244.615384615386,4230.256410256412,4183.076923076925,4197.94871794872,4182.051282051283,4191.794871794873,4204.102564102565,4185.128205128207,4218.97435897436,4216.923076923078,4249.743589743592,4281.0256410256425,0.0,2047.0,2048.0,0.0,0.0,4.0,4.0,4.0,4.0,0.0,4.0,4.0,4.0,4.0,0.0,4.0,2.0,4.0,4.0,4.0,4.0
47.0,0.0,4308.71794871795,4186.153846153848,4238.97435897436,4226.153846153848,4183.076923076925,4200.000000000002,4184.615384615386,4188.71794871795,4204.102564102565,4185.641025641027,4215.384615384617,4214.871794871797,4247.179487179489,4275.384615384617,0.0,2047.0,2048.0,0.0,0.0,4.0,4.0,4.0,4.0,0.0,4.0,4.0,4.0,4.0,0.0,4.0,2.0,4.0,4.0,4.0,4.0
48.0,0.0,4289.743589743592,4163.589743589745,4236.410256410258,4222.564102564104,4187.692307692309,4203.589743589745,4195.897435897437,4187.692307692309,4201.0256410256425,4186.153846153848,4214.871794871797,4222.051282051283,4238.46153846154,4257.94871794872,0.0,2047.0,2048.0,0.0,0.0,4.0,4.0,4.0,4.0,0.0,4.0,4.0,4.0,4.0,0.0,4.0,2.0,4.0,4.0,4.0,4.0
49.0,0.0,4277.435897435899,4149.23076923077,4234.3589743589755,4230.256410256412,4184.102564102565,4202.564102564104,4198.97435897436,4198.97435897436,4205.128205128207,4184.615384615386,4214.3589743589755,4215.897435897437,4233.333333333335,4251.794871794873,0.0,2047.0,2048.0,0.0,0.0,4.0,4.0,4.0,4.0,0.0,4.0,4.0,4.0,4.0,0.0,4.0,2.0,4.0,4.0,4.0,4.0
50.0,0.0,4269.743589743592,4163.589743589745,4233.846153846155,4225.128205128207,4184.615384615386,4203.589743589745,4198.97435897436,4201.538461538463,4215.384615384617,4184.615384615386,4214.871794871797,4215.384615384617,4228.20512820513,4253.333333333335,0.0,2047.0,2048.0,0.0,0.0,4.0,4.0,4.0,4.0,0.0,4.0,4.0,4.0,4.0,0.0,4.0,2.0,4.0,4.0,4.0,4.0
51.0,0.0,4252.8205128205145,4174.3589743589755,4225.128205128207,4208.20512820513,4185.128205128207,4204.615384615386,4201.0256410256425,4191.794871794873,4214.871794871797,4185.128205128207,4216.923076923078,4215.897435897437,4224.615384615386,4242.051282051283,0.0,2047.0,2048.0,0.0,0.0,4.0,4.0,4.0,4.0,0.0,4.0,4.0,4.0,4.0,0.0,4.0,2.0,4.0,4.0,4.0,4.0
52.0,0.0,4235.384615384617,4161.0256410256425,4216.410256410258,4211.794871794873,4184.615384615386,4202.051282051283,4199.487179487181,4189.23076923077,4204.615384615386,4184.615384615386,4214.3589743589755,4211.282051282053,4224.615384615386,4229.23076923077,0.0,2047.0,2048.0,0.0,0.0,4.0,4.0,4.0,4.0,0.0,4.0,4.0,4.0,4.0,0.0,4.0,2.0,4.0,4.0,4.0,4.0
53.0,0.0,4224.615384615386,4139.487179487181,4215.897435897437,4217.94871794872,4184.102564102565,4200.512820512822,4197.94871794872,4194.3589743589755,4201.0256410256425,4185.641025641027,4212.8205128205145,4216.410256410258,4221.538461538463,4225.641025641027,0.0,2047.0,2048.0,0.0,0.0,4.0,4.0,4.0,4.0,0.0,4.0,4.0,4.0,4.0,0.0,4.0,2.0,4.0,4.0,4.0,4.0
54.0,0.0,4212.307692307694,4135.384615384617,4212.307692307694,4205.641025641027,4181.538461538463,4202.564102564104,4200.000000000002,4196.923076923078,4206.666666666668,4187.179487179489,4214.3589743589755,4211.794871794873,4214.871794871797,4218.97435897436,0.0,2047.0,2048.0,0.0,0.0,4.0,4.0,4.0,4.0,0.0,4.0,4.0,4.0,4.0,0.0,4.0,2.0,4.0,4.0,4.0,4.0
55.0,0.0,4204.615384615386,4142.051282051283,4213.333333333335,4200.512820512822,4186.666666666668,4205.128205128207,4205.641025641027,4199.487179487181,4213.846153846155,4185.641025641027,4209.23076923077,4212.8205128205145,4210.256410256412,4210.769230769232,0.0,2047.0,2048.0,0.0,0.0,4.0,4.0,4.0,4.0,0.0,4.0,4.0,4.0,4.0,0.0,4.0,2.0,4.0,4.0,4.0,4.0
56.0,0.0,4194.871794871797,4134.871794871797,4208.20512820513,4200.000000000002,4188.71794871795,4204.102564102565,4206.153846153848,4202.051282051283,4214.3589743589755,4184.615384615386,4200.512820512822,4214.871794871797,4200.512820512822,4204.615384615386,0.0,2047.0,2048.0,0.0,0.0,4.0,4.0,4.0,4.0,0.0,4.0,4.0,4.0,4.0,0.0,4.0,2.0,4.0,4.0,4.0,4.0
57.0,0.0,4177.94871794872,4120.512820512822,4193.333333333335,4187.692307692309,4184.102564102565,4200.512820512822,4197.94871794872,4198.46153846154,4208.71794871795,4186.153846153848,4191.282051282053,4208.20512820513,4184.615384615386,4193.333333333335,0.0,2047.0,2048.0,0.0,0.0,4.0,4.0,4.0,4.0,0.0,4.0,4.0,4.0,4.0,0.0,4.0,2.0,4.0,4.0,4.0,4.0
58.0,0.0,4169.23076923077,4119.487179487181,4189.23076923077,4184.615384615386,4183.076923076925,4200.000000000002,4193.333333333335,4194.3589743589755,4208.71794871795,4187.179487179489,4186.153846153848,4212.307692307694,4183.076923076925,4185.641025641027,0.0,2047.0,2048.0,0.0,0.0,4.0,4.0,4.0,4.0,0.0,4.0,4.0,4.0,4.0,0.0,4.0,2.0,4.0,4.0,4.0,4.0
59.0,0.0,4169.743589743592,4125.128205128207,4191.282051282053,4193.333333333335,4183.076923076925,4202.564102564104,4195.897435897437,4195.384615384617,4213.333333333335,4185.641025641027,4193.846153846155,4210.769230769232,4189.23076923077,4186.153846153848,0.0,2047.0,2048.0,0.0,0.0,4.0,4.0,4.0,4.0,0.0,4.0,4.0,4.0,4.0,0.0,4.0,2.0,4.0,4.0,4.0,4.0
60.0,0.0,4170.769230769232,4123.076923076925,4191.794871794873,4193.333333333335,4186.153846153848,4201.538461538463,4198.97435897436,4197.94871794872,4213.846153846155,4185.128205128207,4198.97435897436,4211.794871794873,4186.666666666668,4187.179487179489,0.0,2047.0,2048.0,0.0,0.0,4.0,4.0,4.0,4.0,0.0,4.0,4.0,4.0,4.0,0.0,4.0,2.0,4.0,4.0,4.0,4.0
61.0,0.0,4166.666666666668,4115.897435897437,4186.666666666668,4187.692307692309,4186.153846153848,4203.589743589745,4200.000000000002,4201.538461538463,4214.871794871797,4186.666666666668,4189.743589743592,4214.3589743589755,4183.589743589745,4184.615384615386,0.0,2047.0,2048.0,0.0,0.0,4.0,4.0,4.0,4.0,0.0,4.0,4.0,4.0,4.0,0.0,4.0,2.0,4.0,4.0,4.0,4.0
62.0,0.0,4158.97435897436,4111.794871794873,4178.46153846154,4190.769230769232,4183.076923076925,4209.23076923077,4203.076923076925,4204.102564102565,4216.410256410258,4186.153846153848,4184.102564102565,4209.23076923077,4184.615384615386,4177.94871794872,0.0,2047.0,2048.0,0.0,0.0,4.0,4.0,4.0,4.0,0.0,4.0,4.0,4.0,4.0,0.0,4.0,2.0,4.0,4.0,4.0,4.0
63.0,0.0,4154.3589743589755,4111.794871794873,4178.97435897436,4188.20512820513,4184.615384615386,4208.20512820513,4204.615384615386,4202.564102564104,4214.871794871797,4185.128205128207,4188.71794871795,4212.8205128205145,4180.512820512822,4174.871794871797,0.0,2047.0,2048.0,0.0,0.0,4.0,4.0,4.0,4.0,0.0,4.0,4.0,4.0,4.0,0.0,4.0,2.0,4.0,4.0,4.0,4.0
64.0,0.0,4152.307692307694,4110.769230769232,4178.97435897436,4180.512820512822,4183.589743589745,4200.512820512822,4197.94871794872,4198.46153846154,4213.333333333335,4185.128205128207,4187.179487179489,4210.256410256412,4174.871794871797,4172.8205128205145,679.0,2047.0,2048.0,0.0,0.0,4.0,4.0,4.0,4.0,0.0,4.0,4.0,4.0,4.0,0.0,4.0,2.0,4.0,4.0,4.0,4.0
65.0,0.0,4153.846153846155,4113.333333333335,4181.538461538463,4183.589743589745,4183.589743589745,4200.000000000002,4191.282051282053,4200.512820512822,4214.871794871797,4185.128205128207,4185.641025641027,4212.307692307694,4178.97435897436,4173.333333333335,824.0,2047.0,2048.0,0.0,0.0,4.0,4.0,4.0,4.0,0.0,4.0,4.0,4.0,4.0,0.0,4.0,2.0,4.0,4.0,4.0,4.0
66.0,0.0,4154.871794871797,4116.923076923078,4183.589743589745,4188.20512820513,4184.102564102565,4203.076923076925,4186.153846153848,4200.000000000002,4214.3589743589755,4185.641025641027,4193.846153846155,4215.897435897437,4185.128205128207,4181.538461538463,800.0,2047.0,2048.0,0.0,0.0,4.0,4.0,4.0,4.0,0.0,4.0,4.0,4.0,4.0,0.0,4.0,2.0,4.0,4.0,4.0,4.0
67.0,0.0,4151.794871794873,4111.794871794873,4180.512820512822,4184.615384615386,4185.128205128207,4202.051282051283,4186.153846153848,4190.769230769232,4210.256410256412,4187.179487179489,4194.871794871797,4208.20512820513,4181.538461538463,4182.564102564104,784.0,2047.0,2048.0,0.0,0.0,4.0,4.0,4.0,4.0,0.0,4.0,4.0,4.0,4.0,0.0,4.0,2.0,4.0,4.0,4.0,4.0
68.0,0.0,4150.256410256412,4108.20512820513,4180.000000000002,4180.000000000002,4185.641025641027,4206.666666666668,4193.846153846155,4189.23076923077,4209.743589743592,4185.641025641027,4187.179487179489,4208.20512820513,4171.794871794873,4172.8205128205145,0.0,2047.0,2048.0,0.0,0.0,4.0,4.0,4.0,4.0,0.0,4.0,4.0,4.0,4.0,0.0,4.0,2.0,4.0,4.0,4.0,4.0
69.0,0.0,4148.71794871795,4108.71794871795,4176.410256410258,4179.487179487181,4181.0256410256425,4213.333333333335,4201.0256410256425,4200.512820512822,4214.3589743589755,4183.589743589745,4185.641025641027,4205.641025641027,4169.23076923077,4166.666666666668,779.0,2047.0,2048.0,0.0,0.0,4.0,4.0,4.0,4.0,0.0,4.0,4.0,4.0,4.0,0.0,4.0,2.0,4.0,4.0,4.0,4.0
70.0,0.0,4152.307692307694,4107.179487179489,4178.97435897436,4183.589743589745,4183.589743589745,4213.846153846155,4201.538461538463,4205.641025641027,4217.435897435899,4184.615384615386,4193.333333333335,4208.71794871795,4174.3589743589755,4173.333333333335,803.0,2047.0,2048.0,0.0,0.0,4.0,4.0,4.0,4.0,0.0,4.0,4.0,4.0,4.0,0.0,4.0,2.0,4.0,4.0,4.0,4.0
71.0,0.0,4162.051282051283,4113.846153846155,4185.128205128207,4187.692307692309,4187.179487179489,4215.384615384617,4202.564102564104,4204.615384615386,4217.435897435899,4185.641025641027,4200.000000000002,4215.897435897437,4184.102564102565,4183.589743589745,788.0,2047.0,2048.0,0.0,0.0,4.0,4.0,4.0,4.0,0.0,4.0,4.0,4.0,4.0,0.0,4.0,2.0,4.0,4.0,4.0,4.0
72.0,0.0,4162.564102564104,4118.46153846154,4182.051282051283,4187.179487179489,4183.076923076925,4217.94871794872,4209.743589743592,4204.615384615386,4216.410256410258,4185.641025641027,4198.97435897436,4208.20512820513,4187.692307692309,4186.666666666668,644.0,2047.0,2048.0,0.0,0.0,4.0,4.0,4.0,4.0,0.0,4.0,4.0,4.0,4.0,0.0,4.0,2.0,4.0,4.0,4.0,4.0
73.0,0.0,4155.897435897437,4109.23076923077,4181.538461538463,4185.128205128207,4184.102564102565,4217.94871794872,4210.769230769232,4202.564102564104,4215.897435897437,4185.128205128207,4195.384615384617,4209.23076923077,4184.102564102565,4185.641025641027,0.0,2047.0,2048.0,0.0,0.0,4.0,4.0,4.0,4.0,0.0,4.0,4.0,4.0,4.0,0.0,4.0,2.0,4.0,4.0,4.0,4.0
74.0,0.0,4152.8205128205145,4105.641025641027,4181.0256410256425,4182.051282051283,4185.128205128207,4218.97435897436,4205.128205128207,4200.000000000002,4216.410256410258,4184.615384615386,4196.923076923078,4210.256410256412,4183.589743589745,4184.615384615386,859.0,2047.0,2048.0,0.0,0.0,4.0,4.0,4.0,4.0,0.0,4.0,4.0,4.0,4.0,0.0,4.0,2.0,4.0,4.0,4.0,4.0
75.0,0.0,4155.384615384617,4112.307692307694,4183.076923076925,4180.000000000002,4184.615384615386,4214.871794871797,4200.000000000002,4200.512820512822,4215.897435897437,4185.128205128207,4195.897435897437,4209.23076923077,4185.128205128207,4186.666666666668,845.0,2047.0,2048.0,0.0,0.0,4.0,4.0,4.0,4.0,0.0,4.0,4.0,4.0,4.0,0.0,4.0,2.0,4.0,4.0,4.0,4.0
76.0,0.0,4162.051282051283,4115.897435897437,4187.692307692309,4180.000000000002,4182.564102564104,4206.666666666668,4196.410256410258,4201.0256410256425,4212.8205128205145,4185.641025641027,4195.384615384617,4213.333333333335,4185.128205128207,4187.179487179489,841.0,2047.0,2048.0,0.0,0.0,4.0,4.0,4.0,4.0,0.0,4.0,4.0,4.0,4.0,0.0,4.0,2.0,4.0,4.0,4.0,4.0
77.0,0.0,4162.051282051283,4115.897435897437,4183.076923076925,4181.0256410256425,4181.0256410256425,4203.589743589745,4196.410256410258,4198.97435897436,4212.8205128205145,4185.641025641027,4194.3589743589755,4208.71794871795,4183.589743589745,4184.615384615386,180.0,2047.0,2048.0,0.0,0.0,4.0,4.0,4.0,4.0,0.0,4.0,4.0,4.0,4.0,0.0,4.0,2.0,4.0,4.0,4.0,4.0
78.0,0.0,4157.435897435899,4118.97435897436,4181.538461538463,4185.128205128207,4183.589743589745,4210.256410256412,4198.46153846154,4200.512820512822,4215.897435897437,4185.128205128207,4190.769230769232,4212.307692307694,4184.615384615386,4184.615384615386,859.0,2047.0,2048.0,0.0,0.0,4.0,4.0,4.0,4.0,0.0,4.0,4.0,4.0,4.0,0.0,4.0,2.0,4.0,4.0,4.0,4.0
79.0,0.0,4156.923076923078,4118.97435897436,4181.0256410256425,4185.641025641027,4182.564102564104,4214.871794871797,4200.512820512822,4203.589743589745,4216.410256410258,4184.102564102565,4189.743589743592,4210.256410256412,4183.589743589745,4184.615384615386,845.0,2047.0,2048.0,0.0,0.0,4.0,4.0,4.0,4.0,0.0,4.0,4.0,4.0,4.0,0.0,4.0,2.0,4.0,4.0,4.0,4.0
80.0,0.0,4161.538461538463,4121.0256410256425,4183.076923076925,4182.051282051283,4183.076923076925,4210.769230769232,4201.0256410256425,4195.897435897437,4211.282051282053,4183.589743589745,4189.743589743592,4206.153846153848,4180.512820512822,4181.538461538463,841.0,2047.0,2048.0,0.0,0.0,4.0,4.0,4.0,4.0,0.0,4.0,4.0,4.0,4.0,0.0,4.0,2.0,4.0,4.0,4.0,4.0
81.0,0.0,4176.410256410258,4129.743589743592,4188.71794871795,4188.71794871795,4184.102564102565,4212.8205128205145,4201.538461538463,4192.307692307694,4212.307692307694,4185.128205128207,4195.897435897437,4212.8205128205145,4189.743589743592,4189.743589743592,180.0,2047.0,2048.0,0.0,0.0,4.0,4.0,4.0,4.0,0.0,4.0,4.0,4.0,4.0,0.0,4.0,2.0,4.0,4.0,4.0,4.0
82.0,0.0,4194.3589743589755,4138.46153846154,4191.794871794873,4196.923076923078,4180.512820512822,4216.410256410258,4202.051282051283,4196.410256410258,4217.94871794872,4187.179487179489,4204.102564102565,4209.743589743592,4208.71794871795,4207.179487179489,859.0,2047.0,2048.0,0.0,0.0,4.0,4.0,4.0,4.0,0.0,4.0,4.0,4.0,4.0,0.0,4.0,2.0,4.0,4.0,4.0,4.0
83.0,0.0,4215.897435897437,4148.20512820513,4201.538461538463,4197.94871794872,4183.076923076925,4210.256410256412,4201.538461538463,4192.8205128205145,4212.307692307694,4186.153846153848,4206.153846153848,4212.307692307694,4217.435897435899,4223.076923076925,845.0,2047.0,2048.0,0.0,0.0,4.0,4.0,4.0,4.0,0.0,4.0,4.0,4.0,4.0,0.0,4.0,2.0,4.0,4.0,4.0,4.0
84.0,0.0,4245.128205128207,4164.102564102565,4216.410256410258,4204.102564102565,4183.589743589745,4201.538461538463,4196.410256410258,4186.153846153848,4202.051282051283,4185.128205128207,4207.179487179489,4216.410256410258,4222.051282051283,4240.512820512822,841.0,2047.0,2048.0,0.0,0.0,4.0,4.0,4.0,4.0,0.0,4.0,4.0,4.0,4.0,0.0,4.0,2.0,4.0,4.0,4.0,4.0
85.0,0.0,4272.307692307694,4181.0256410256425,4229.23076923077,4213.333333333335,4182.564102564104,4203.589743589745,4189.743589743592,4187.179487179489,4202.051282051283,4186.666666666668,4213.846153846155,4218.97435897436,4238.46153846154,4262.051282051283,180.0,2047.0,2048.0,0.0,0.0,4.0,4.0,4.0,4.0,0.0,4.0,4.0,4.0,4.0,0.0,4.0,2.0,4.0,4.0,4.0,4.0
86.0,0.0,4287.179487179489,4186.153846153848,4238.46153846154,4213.333333333335,4183.589743589745,4204.102564102565,4187.692307692309,4186.153846153848,4205.641025641027,4186.666666666668,4223.076923076925,4223.076923076925,4253.846153846155,4277.435897435899,859.0,2047.0,2048.0,0.0,0.0,4.0,4.0,4.0,4.0,0.0,4.0,4.0,4.0,4.0,0.0,4.0,2.0,4.0,4.0,4.0,4.0
87.0,0.0,4293.333333333335,4187.179487179489,4237.435897435899,4214.871794871797,4183.076923076925,4196.923076923078,4188.71794871795,4183.589743589745,4201.538461538463,4184.615384615386,4225.128205128207,4214.3589743589755,4253.333333333335,4282.051282051283,845.0,2047.0,2048.0,0.0,0.0,4.0,4.0,4.0,4.0,0.0,4.0,4.0,4.0,4.0,0.0,4.0,2.0,4.0,4.0,4.0,4.0
88.0,0.0,4301.538461538463,4192.8205128205145,4237.435897435899,4217.94871794872,4184.615384615386,4190.769230769232,4185.641025641027,4183.589743589745,4198.46153846154,4184.615384615386,4222.051282051283,4215.384615384617,4249.743589743592,4283.589743589745,841.0,2047.0,2048.0,0.0,0.0,4.0,4.0,4.0,4.0,0.0,4.0,4.0,4.0,4.0,0.0,4.0,2.0,4.0,4.0,4.0,4.0
89.0,0.0,4303.589743589745,4185.128205128207,4240.000000000002,4216.410256410258,4182.564102564104,4189.743589743592,4183.589743589745,4181.538461538463,4198.97435897436,4186.153846153848,4219.487179487181,4218.46153846154,4253.333333333335,4285.128205128207,180.0,2047.0,2048.0,0.0,0.0,4.0,4.0,4.0,4.0,0.0,4.0,4.0,4.0,4.0,0.0,4.0,2.0,4.0,4.0,4.0,4.0
90.0,0.0,4293.846153846155,4171.282051282053,4240.000000000002,4217.435897435899,4183.589743589745,4199.487179487181,4194.871794871797,4182.564102564104,4198.46153846154,4185.128205128207,4221.538461538463,4217.435897435899,4249.23076923077,4283.076923076925,859.0,2047.0,2048.0,0.0,0.0,4.0,4.0,4.0,4.0,0.0,4.0,4.0,4.0,4.0,0.0,4.0,2.0,4.0,4.0,4.0,4.0
91.0,0.0,4277.94871794872,4172.8205128205145,4234.871794871797,4212.307692307694,4187.179487179489,4201.538461538463,4201.538461538463,4188.20512820513,4200.000000000002,4184.615384615386,4224.615384615386,4222.564102564104,4235.897435897437,4278.97435897436,845.0,2047.0,2048.0,0.0,0.0,4.0,4.0,4.0,4.0,0.0,4.0,4.0,4.0,4.0,0.0,4.0,2.0,4.0,4.0,4.0,4.0
92.0,0.0,4258.97435897436,4172.307692307694,4220.000000000002,4195.897435897437,4184.102564102565,4187.179487179489,4188.71794871795,4187.692307692309,4205.641025641027,4186.153846153848,4218.97435897436,4216.923076923078,4230.769230769232,4268.71794871795,841.0,2047.0,2048.0,0.0,0.0,4.0,4.0,4.0,4.0,0.0,4.0,4.0,4.0,4.0,0.0,4.0,2.0,4.0,4.0,4.0,4.0
93.0,0.0,4239.487179487181,4155.384615384617,4208.20512820513,4185.641025641027,4185.641025641027,4182.564102564104,4173.846153846155,4178.97435897436,4200.512820512822,4186.666666666668,4206.153846153848,4215.897435897437,4225.128205128207,4243.589743589745,180.0,2047.0,2048.0,0.0,0.0,4.0,4.0,4.0,4.0,0.0,4.0,4.0,4.0,4.0,0.0,4.0,2.0,4.0,4.0,4.0,4.0
94.0,0.0,4220.000000000002,4144.615384615386,4200.512820512822,4185.641025641027,4185.641025641027,4187.179487179489,4169.743589743592,4169.23076923077,4188.71794871795,4185.128205128207,4197.94871794872,4216.410256410258,4210.769230769232,4216.923076923078,859.0,2047.0,2048.0,0.0,0.0,4.0,4.0,4.0,4.0,0.0,4.0,4.0,4.0,4.0,0.0,4.0,2.0,4.0,4.0,4.0,4.0
95.0,0.0,4202.051282051283,4144.615384615386,4195.384615384617,4179.487179487181,4183.076923076925,4187.179487179489,4174.3589743589755,4166.666666666668,4189.743589743592,4184.102564102565,4198.97435897436,4211.794871794873,4201.0256410256425,4213.333333333335,845.0,2047.0,2048.0,0.0,0.0,4.0,4.0,4.0,4.0,0.0,4.0,4.0,4.0,4.0,0.0,4.0,2.0,4.0,4.0,4.0,4.0
96.0,0.0,4191.282051282053,4139.487179487181,4193.846153846155,4173.846153846155,4185.128205128207,4191.794871794873,4183.076923076925,4170.769230769232,4196.410256410258,4185.641025641027,4199.487179487181,4218.46153846154,4198.97435897436,4217.94871794872,841.0,2047.0,2048.0,0.0,0.0,4.0,4.0,4.0,4.0,0.0,4.0,4.0,4.0,4.0,0.0,4.0,2.0,4.0,4.0,4.0,4.0
97.0,0.0,4180.512820512822,4123.076923076925,4186.153846153848,4178.46153846154,4183.076923076925,4198.97435897436,4185.641025641027,4177.94871794872,4196.923076923078,4186.153846153848,4191.282051282053,4211.282051282053,4191.282051282053,4203.589743589745,180.0,2047.0,2048.0,0.0,0.0,4.0,4.0,4.0,4.0,0.0,4.0,4.0,4.0,4.0,0.0,4.0,2.0,4.0,4.0,4.0,4.0
98.0,0.0,4158.97435897436,4108.71794871795,4178.97435897436,4175.384615384617,4183.076923076925,4201.0256410256425,4184.102564102565,4184.615384615386,4196.923076923078,4185.128205128207,4181.0256410256425,4205.128205128207,4176.410256410258,4177.94871794872,859.0,2047.0,2048.0,0.0,0.0,4.0,4.0,4.0,4.0,0.0,4.0,4.0,4.0,4.0,0.0,4.0,2.0,4.0,4.0,4.0,4.0
99.0,0.0,4141.538461538463,4108.71794871795,4168.71794871795,4161.0256410256425,4184.615384615386,4204.102564102565,4193.846153846155,4188.20512820513,4200.512820512822,4184.615384615386,4176.410256410258,4206.153846153848,4168.71794871795,4167.692307692309,845.0,2047.0,2048.0,0.0,0.0,4.0,4.0,4.0,4.0,0.0,4.0,4.0,4.0,4.0,0.0,4.0,2.0,4.0,4.0,4.0,4.0
100.0,0.0,4147.692307692309,4117.94871794872,4166.153846153848,4162.564102564104,4181.538461538463,4208.20512820513,4204.102564102565,4192.8205128205145,4207.692307692309,4186.666666666668,4181.538461538463,4204.102564102565,4176.923076923078,4175.897435897437,841.0,2047.0,2048.0,0.0,0.0,4.0,4.0,4.0,4.0,0.0,4.0,4.0,4.0,4.0,0.0,4.0,2.0,4.0,4.0,4.0,4.0
101.0,0.0,4161.538461538463,4129.23076923077,4180.512820512822,4176.923076923078,4182.564102564104,4204.615384615386,4198.97435897436,4196.410256410258,4213.846153846155,4186.153846153848,4194.871794871797,4212.8205128205145,4189.743589743592,4187.179487179489,180.0,2047.0,2048.0,0.0,0.0,4.0,4.0,4.0,4.0,0.0,4.0,4.0,4.0,4.0,0.0,4.0,2.0,4.0,4.0,4.0,4.0
102.0,0.0,4152.307692307694,4130.769230769232,4177.94871794872,4175.897435897437,4183.076923076925,4201.538461538463,4190.769230769232,4188.71794871795,4207.179487179489,4185.128205128207,4194.871794871797,4210.769230769232,4188.20512820513,4183.589743589745,859.0,2047.0,2048.0,0.0,0.0,4.0,4.0,4.0,4.0,0.0,4.0,4.0,4.0,4.0,0.0,4.0,2.0,4.0,4.0,4.0,4.0
103.0,0.0,4142.564102564104,4118.97435897436,4169.743589743592,4169.23076923077,4182.564102564104,4202.051282051283,4186.153846153848,4176.923076923078,4196.923076923078,4184.615384615386,4184.615384615386,4207.692307692309,4180.512820512822,4173.333333333335,845.0,2047.0,2048.0,0.0,0.0,4.0,4.0,4.0,4.0,0.0,4.0,4.0,4.0,4.0,0.0,4.0,2.0,4.0,4.0,4.0,4.0
104.0,0.0,4146.666666666668,4107.692307692309,4172.307692307694,4168.71794871795,4182.051282051283,4200.512820512822,4182.051282051283,4172.8205128205145,4198.97435897436,4184.615384615386,4182.564102564104,4213.846153846155,4176.410256410258,4172.307692307694,841.0,2047.0,2048.0,0.0,0.0,4.0,4.0,4.0,4.0,0.0,4.0,4.0,4.0,4.0,0.0,4.0,2.0,4.0,4.0,4.0,4.0
105.0,0.0,4141.0256410256425,4106.666666666668,4167.692307692309,4166.666666666668,4183.589743589745,4198.97435897436,4183.589743589745,4174.3589743589755,4201.538461538463,4184.615384615386,4182.564102564104,4208.20512820513,4170.769230769232,4169.743589743592,180.0,2047.0,2048.0,0.0,0.0,4.0,4.0,4.0,4.0,0.0,4.0,4.0,4.0,4.0,0.0,4.0,2.0,4.0,4.0,4.0,4.0
106.0,0.0,4136.923076923078,4108.20512820513,4168.20512820513,4166.666666666668,4186.153846153848,4200.000000000002,4186.153846153848,4183.076923076925,4200.512820512822,4185.641025641027,4185.641025641027,4209.23076923077,4172.8205128205145,4170.769230769232,859.0,2047.0,2048.0,0.0,0.0,4.0,4.0,4.0,4.0,0.0,4.0,4.0,4.0,4.0,0.0,4.0,2.0,4.0,4.0,4.0,4.0
107.0,0.0,4147.179487179489,4112.307692307694,4175.897435897437,4169.743589743592,4182.564102564104,4200.512820512822,4182.564102564104,4189.743589743592,4204.102564102565,4185.128205128207,4196.923076923078,4212.307692307694,4186.153846153848,4180.512820512822,845.0,2047.0,2048.0,0.0,0.0,4.0,4.0,4.0,4.0,0.0,4.0,4.0,4.0,4.0,0.0,4.0,2.0,4.0,4.0,4.0,4.0
108.0,0.0,4150.256410256412,4116.410256410258,4178.97435897436,4170.769230769232,4182.564102564104,4201.0256410256425,4183.589743589745,4183.076923076925,4203.589743589745,4184.615384615386,4198.97435897436,4215.897435897437,4189.23076923077,4181.538461538463,841.0,2047.0,2048.0,0.0,0.0,4.0,4.0,4.0,4.0,0.0,4.0,4.0,4.0,4.0,0.0,4.0,2.0,4.0,4.0,4.0,4.0
109.0,0.0,4136.410256410258,4111.794871794873,4172.307692307694,4169.743589743592,4183.076923076925,4199.487179487181,4184.102564102565,4172.307692307694,4195.897435897437,4185.641025641027,4189.23076923077,4216.410256410258,4176.923076923078,4171.282051282053,180.0,2047.0,2048.0,0.0,0.0,4.0,4.0,4.0,4.0,0.0,4.0,4.0,4.0,4.0,0.0,4.0,2.0,4.0,4.0,4.0,4.0
110.0,0.0,4126.153846153848,4107.179487179489,4162.051282051283,4162.051282051283,4181.538461538463,4198.46153846154,4174.3589743589755,4169.23076923077,4192.307692307694,4186.153846153848,4182.051282051283,4203.589743589745,4170.256410256412,4161.538461538463,859.0,2047.0,2048.0,0.0,0.0,4.0,4.0,4.0,4.0,0.0,4.0,4.0,4.0,4.0,0.0,4.0,2.0,4.0,4.0,4.0,4.0
111.0,0.0,4127.692307692309,4102.051282051283,4158.46153846154,4153.846153846155,4183.076923076925,4200.512820512822,4172.8205128205145,4175.384615384617,4197.94871794872,4185.641025641027,4176.410256410258,4204.102564102565,4167.179487179489,4156.923076923078,845.0,2047.0,2048.0,0.0,0.0,4.0,4.0,4.0,4.0,0.0,4.0,4.0,4.0,4.0,0.0,4.0,2.0,4.0,4.0,4.0,4.0
112.0,0.0,4124.102564102565,4095.384615384617,4152.307692307694,4153.333333333335,4179.487179487181,4202.564102564104,4184.615384615386,4183.076923076925,4203.589743589745,4185.128205128207,4170.769230769232,4205.641025641027,4159.487179487181,4151.282051282053,841.0,2047.0,2048.0,0.0,0.0,4.0,4.0,4.0,4.0,0.0,4.0,4.0,4.0,4.0,0.0,4.0,2.0,4.0,4.0,4.0,4.0
113.0,0.0,4111.794871794873,4093.333333333335,4145.128205128207,4146.666666666668,4180.512820512822,4201.0256410256425,4187.692307692309,4184.102564102565,4202.051282051283,4185.128205128207,4168.71794871795,4203.589743589745,4152.8205128205145,4141.538461538463,180.0,2047.0,2048.0,0.0,0.0,4.0,4.0,4.0,4.0,0.0,4.0,4.0,4.0,4.0,0.0,4.0,2.0,4.0,4.0,4.0,4.0
114.0,0.0,4104.102564102565,4094.8717948717963,4147.179487179489,4141.538461538463,4184.615384615386,4197.94871794872,4182.051282051283,4184.615384615386,4200.000000000002,4185.641025641027,4168.20512820513,4204.615384615386,4152.307692307694,4136.923076923078,859.0,2047.0,2048.0,0.0,0.0,4.0,4.0,4.0,4.0,0.0,4.0,4.0,4.0,4.0,0.0,4.0,2.0,4.0,4.0,4.0,4.0
115.0,0.0,4111.282051282053,4101.0256410256425,4150.769230769232,4151.282051282053,4183.076923076925,4196.410256410258,4183.076923076925,4184.615384615386,4201.0256410256425,4186.153846153848,4169.23076923077,4199.487179487181,4156.410256410258,4143.076923076925,845.0,2047.0,2048.0,0.0,0.0,4.0,4.0,4.0,4.0,0.0,4.0,4.0,4.0,4.0,0.0,4.0,2.0,4.0,4.0,4.0,4.0
116.0,0.0,4125.641025641027,4108.71794871795,4154.871794871797,4157.435897435899,4183.589743589745,4199.487179487181,4183.076923076925,4176.923076923078,4197.435897435899,4186.153846153848,4172.307692307694,4206.153846153848,4157.435897435899,4147.179487179489,841.0,2047.0,2048.0,0.0,0.0,4.0,4.0,4.0,4.0,0.0,4.0,4.0,4.0,4.0,0.0,4.0,2.0,4.0,4.0,4.0,4.0
117.0,0.0,4126.666666666668,4108.71794871795,4152.307692307694,4154.3589743589755,4182.051282051283,4196.923076923078,4173.846153846155,4171.282051282053,4197.435897435899,4186.666666666668,4172.307692307694,4205.641025641027,4156.410256410258,4148.20512820513,180.0,2047.0,2048.0,0.0,0.0,4.0,4.0,4.0,4.0,0.0,4.0,4.0,4.0,4.0,0.0,4.0,2.0,4.0,4.0,4.0,4.0
118.0,0.0,4116.923076923078,4107.692307692309,4148.20512820513,4153.333333333335,4182.564102564104,4186.153846153848,4172.307692307694,4174.871794871797,4196.923076923078,4186.153846153848,4169.23076923077,4201.0256410256425,4154.3589743589755,4148.20512820513,859.0,2047.0,2048.0,0.0,0.0,4.0,4.0,4.0,4.0,0.0,4.0,4.0,4.0,4.0,0.0,4.0,2.0,4.0,4.0,4.0,4.0
119.0,0.0,4114.871794871797,4106.666666666668,4151.282051282053,4151.794871794873,4186.153846153848,4186.153846153848,4181.0256410256425,4173.333333333335,4188.20512820513,4184.615384615386,4167.692307692309,4207.692307692309,4148.71794871795,4140.512820512822,845.0,2047.0,2048.0,0.0,0.0,4.0,4.0,4.0,4.0,0.0,4.0,4.0,4.0,4.0,0.0,4.0,2.0,4.0,4.0,4.0,4.0
120.0,0.0,4121.538461538463,4103.076923076925,4153.846153846155,4147.179487179489,4183.589743589745,4193.846153846155,4182.051282051283,4174.3589743589755,4187.179487179489,4184.615384615386,4167.692307692309,4204.102564102565,4146.666666666668,4138.97435897436,841.0,2047.0,2048.0,0.0,0.0,4.0,4.0,4.0,4.0,0.0,4.0,4.0,4.0,4.0,0.0,4.0,2.0,4.0,4.0,4.0,4.0
121.0,0.0,4130.769230769232,4108.71794871795,4158.46153846154,4153.846153846155,4182.051282051283,4195.384615384617,4174.3589743589755,4182.564102564104,4198.97435897436,4185.641025641027,4169.743589743592,4205.641025641027,4150.769230769232,4149.743589743592,180.0,2047.0,2048.0,0.0,0.0,4.0,4.0,4.0,4.0,0.0,4.0,4.0,4.0,4.0,0.0,4.0,2.0,4.0,4.0,4.0,4.0
122.0,0.0,4134.3589743589755,4120.000000000002,4157.94871794872,4165.641025641027,4182.564102564104,4194.871794871797,4177.435897435899,4186.153846153848,4204.102564102565,4185.128205128207,4177.435897435899,4206.666666666668,4158.97435897436,4153.846153846155,859.0,2047.0,2048.0,0.0,0.0,4.0,4.0,4.0,4.0,0.0,4.0,4.0,4.0,4.0,0.0,4.0,2.0,4.0,4.0,4.0,4.0
123.0,0.0,4130.769230769232,4119.487179487181,4155.897435897437,4165.128205128207,4183.076923076925,4201.538461538463,4188.71794871795,4184.102564102565,4204.615384615386,4184.615384615386,4181.0256410256425,4203.076923076925,4163.589743589745,4151.794871794873,845.0,2047.0,2048.0,0.0,0.0,4.0,4.0,4.0,4.0,0.0,4.0,4.0,4.0,4.0,0.0,4.0,2.0,4.0,4.0,4.0,4.0
124.0,0.0,4129.743589743592,4112.8205128205145,4158.46153846154,4158.97435897436,4183.589743589745,4202.051282051283,4188.71794871795,4187.179487179489,4206.666666666668,4184.102564102565,4174.871794871797,4208.20512820513,4161.538461538463,4153.333333333335,841.0,2047.0,2048.0,0.0,0.0,4.0,4.0,4.0,4.0,0.0,4.0,4.0,4.0,4.0,0.0,4.0,2.0,4.0,4.0,4.0,4.0
125.0,0.0,4130.769230769232,4114.871794871797,4155.897435897437,4161.0256410256425,4182.564102564104,4197.94871794872,4184.615384615386,4197.94871794872,4204.615384615386,4183.589743589745,4173.846153846155,4205.641025641027,4160.000000000002,4154.3589743589755,180.0,2047.0,2048.0,0.0,0.0,4.0,4.0,4.0,4.0,0.0,4.0,4.0,4.0,4.0,0.0,4.0,2.0,4.0,4.0,4.0,4.0
126.0,0.0,4140.000000000002,4126.153846153848,4167.179487179489,4171.282051282053,4183.589743589745,4202.564102564104,4193.333333333335,4202.051282051283,4205.641025641027,4184.615384615386,4184.102564102565,4210.256410256412,4169.23076923077,4164.102564102565,859.0,2047.0,2048.0,0.0,0.0,4.0,4.0,4.0,4.0,0.0,4.0,4.0,4.0,4.0,0.0,4.0,2.0,4.0,4.0,4.0,4.0
127.0,0.0,4149.23076923077,4132.8205128205145,4180.512820512822,4170.769230769232,4181.538461538463,4205.128205128207,4197.94871794872,4190.769230769232,4209.23076923077,4186.666666666668,4188.71794871795,4213.333333333335,4177.435897435899,4174.871794871797,845.0,2047.0,2048.0,0.0,0.0,4.0,4.0,4.0,4.0,0.0,4.0,4.0,4.0,4.0,0.0,4.0,2.0,4.0,4.0,4.0,4.0
128.0,0.0,4145.641025641027,4128.71794871795,4174.871794871797,4167.692307692309,4180.000000000002,4200.000000000002,4188.20512820513,4182.051282051283,4203.589743589745,4186.666666666668,4183.589743589745,4205.641025641027,4169.23076923077,4165.641025641027,841.0,2047.0,2048.0,0.0,0.0,4.0,4.0,4.0,4.0,0.0,4.0,4.0,4.0,4.0,0.0,4.0,2.0,4.0,4.0,4.0,4.0
0.0,0.0,4146.666666666668,4127.692307692309,4172.8205128205145,4172.307692307694,4183.076923076925,4198.97435897436,4184.615384615386,4186.153846153848,4201.0256410256425,4185.128205128207,4185.128205128207,4208.20512820513,4167.179487179489,4162.051282051283,679.0,2047.0,2048.0,0.0,0.0,4.0,4.0,4.0,4.0,0.0,4.0,4.0,4.0,4.0,0.0,4.0,2.0,4.0,4.0,4.0,4.0
1.0,0.0,4156.410256410258,4135.897435897437,4180.000000000002,4173.333333333335,4182.051282051283,4202.564102564104,4189.743589743592,4188.20512820513,4206.153846153848,4184.102564102565,4190.769230769232,4205.128205128207,4181.538461538463,4174.3589743589755,826.0,2047.0,2048.0,0.0,0.0,4.0,4.0,4.0,4.0,0.0,4.0,4.0,4.0,4.0,0.0,4.0,2.0,4.0,4.0,4.0,4.0
2.0,0.0,4158.97435897436,4138.46153846154,4187.179487179489,4170.769230769232,4185.128205128207,4197.94871794872,4190.256410256412,4186.666666666668,4204.615384615386,4185.128205128207,4187.179487179489,4207.692307692309,4186.153846153848,4175.384615384617,800.0,2047.0,2048.0,0.0,0.0,4.0,4.0,4.0,4.0,0.0,4.0,4.0,4.0,4.0,0.0,4.0,2.0,4.0,4.0,4.0,4.0
3.0,0.0,4156.923076923078,4134.871794871797,4183.076923076925,4171.282051282053,4185.641025641027,4196.923076923078,4189.23076923077,4188.71794871795,4200.512820512822,4186.153846153848,4183.589743589745,4211.794871794873,4180.512820512822,4168.71794871795,785.0,2047.0,2048.0,0.0,0.0,4.0,4.0,4.0,4.0,0.0,4.0,4.0,4.0,4.0,0.0,4.0,2.0,4.0,4.0,4.0,4.0
4.0,0.0,4167.179487179489,4141.0256410256425,4179.487179487181,4172.8205128205145,4182.051282051283,4199.487179487181,4191.282051282053,4186.666666666668,4199.487179487181,4185.128205128207,4185.128205128207,4205.641025641027,4185.128205128207,4176.923076923078,0.0,2047.0,2048.0,0.0,0.0,4.0,4.0,4.0,4.0,0.0,4.0,4.0,4.0,4.0,0.0,4.0,2.0,4.0,4.0,4.0,4.0
5.0,0.0,4191.282051282053,4156.410256410258,4190.769230769232,4176.923076923078,4183.076923076925,4194.3589743589755,4184.615384615386,4186.666666666668,4199.487179487181,4185.128205128207,4191.282051282053,4208.71794871795,4198.46153846154,4195.384615384617,779.0,2047.0,2048.0,0.0,0.0,4.0,4.0,4.0,4.0,0.0,4.0,4.0,4.0,4.0,0.0,4.0,2.0,4.0,4.0,4.0,4.0
6.0,0.0,4217.435897435899,4174.3589743589755,4205.641025641027,4188.20512820513,4183.076923076925,4187.179487179489,4175.384615384617,4189.743589743592,4199.487179487181,4187.179487179489,4200.512820512822,4209.23076923077,4210.256410256412,4214.871794871797,803.0,2047.0,2048.0,0.0,0.0,4.0,4.0,4.0,4.0,0.0,4.0,4.0,4.0,4.0,0.0,4.0,2.0,4.0,4.0,4.0,4.0
7.0,0.0,4245.641025641027,4190.256410256412,4221.0256410256425,4197.94871794872,4184.102564102565,4187.179487179489,4174.3589743589755,4186.153846153848,4202.051282051283,4187.179487179489,4212.307692307694,4216.923076923078,4225.641025641027,4238.46153846154,794.0,2047.0,2048.0,0.0,0.0,4.0,4.0,4.0,4.0,0.0,4.0,4.0,4.0,4.0,0.0,4.0,2.0,4.0,4.0,4.0,4.0
8.0,0.0,4275.897435897437,4205.128205128207,4232.307692307694,4204.615384615386,4182.564102564104,4194.3589743589755,4183.589743589745,4189.23076923077,4206.666666666668,4185.128205128207,4225.641025641027,4222.051282051283,4244.615384615386,4261.538461538463,644.0,2047.0,2048.0,0.0,0.0,4.0,4.0,4.0,4.0,0.0,4.0,4.0,4.0,4.0,0.0,4.0,2.0,4.0,4.0,4.0,4.0
9.0,0.0,4296.410256410258,4212.307692307694,4234.871794871797,4217.435897435899,4181.0256410256425,4196.923076923078,4189.743589743592,4198.46153846154,4207.179487179489,4185.128205128207,4231.794871794873,4217.435897435899,4253.846153846155,4277.94871794872,0.0,2047.0,2048.0,0.0,0.0,4.0,4.0,4.0,4.0,0.0,4.0,4.0,4.0,4.0,0.0,4.0,2.0,4.0,4.0,4.0,4.0
10.0,0.0,4304.615384615386,4208.20512820513,4236.410256410258,4221.538461538463,4185.641025641027,4188.71794871795,4185.641025641027,4195.384615384617,4202.051282051283,4185.641025641027,4223.589743589745,4222.051282051283,4249.23076923077,4282.051282051283,859.0,2047.0,2048.0,0.0,0.0,4.0,4.0,4.0,4.0,0.0,4.0,4.0,4.0,4.0,0.0,4.0,2.0,4.0,4.0,4.0,4.0
11.0,0.0,4305.641025641027,4205.641025641027,4235.897435897437,4214.871794871797,4185.128205128207,4181.0256410256425,4182.051282051283,4183.589743589745,4196.410256410258,4185.128205128207,4215.384615384617,4214.3589743589755,4240.000000000002,4273.333333333335,845.0,2047.0,2048.0,0.0,0.0,4.0,4.0,4.0,4.0,0.0,4.0,4.0,4.0,4.0,0.0,4.0,2.0,4.0,4.0,4.0,4.0
12.0,0.0,4297.94871794872,4204.615384615386,4235.897435897437,4211.794871794873,4184.615384615386,4182.051282051283,4184.102564102565,4180.512820512822,4196.410256410258,4184.615384615386,4213.846153846155,4210.769230769232,4229.23076923077,4262.564102564104,847.0,2047.0,2048.0,0.0,0.0,4.0,4.0,4.0,4.0,0.0,4.0,4.0,4.0,4.0,0.0,4.0,2.0,4.0,4.0,4.0,4.0
13.0,0.0,4283.589743589745,4201.538461538463,4226.153846153848,4207.692307692309,4186.153846153848,4184.102564102565,4186.666666666668,4186.153846153848,4200.000000000002,4185.641025641027,4208.71794871795,4216.923076923078,4226.153846153848,4254.3589743589755,180.0,2047.0,2048.0,0.0,0.0,4.0,4.0,4.0,4.0,0.0,4.0,4.0,4.0,4.0,0.0,4.0,2.0,4.0,4.0,4.0,4.0
14.0,0.0,4269.23076923077,4196.923076923078,4210.256410256412,4196.923076923078,4184.102564102565,4185.641025641027,4182.564102564104,4187.692307692309,4201.0256410256425,4184.615384615386,4204.615384615386,4212.307692307694,4232.307692307694,4248.20512820513,859.0,2047.0,2048.0,0.0,0.0,4.0,4.0,4.0,4.0,0.0,4.0,4.0,4.0,4.0,0.0,4.0,2.0,4.0,4.0,4.0,4.0
15.0,0.0,4257.94871794872,4190.769230769232,4210.256410256412,4189.743589743592,4185.128205128207,4188.71794871795,4175.384615384617,4182.051282051283,4200.000000000002,4184.615384615386,4204.615384615386,4216.410256410258,4229.743589743592,4240.000000000002,845.0,2047.0,2048.0,0.0,0.0,4.0,4.0,4.0,4.0,0.0,4.0,4.0,4.0,4.0,0.0,4.0,2.0,4.0,4.0,4.0,4.0
16.0,0.0,4240.000000000002,4181.0256410256425,4209.743589743592,4186.666666666668,4184.102564102565,4189.743589743592,4180.512820512822,4185.128205128207,4200.512820512822,4186.666666666668,4201.0256410256425,4216.410256410258,4212.8205128205145,4225.128205128207,0.0,2047.0,2048.0,0.0,0.0,4.0,4.0,4.0,4.0,0.0,4.0,4.0,4.0,4.0,0.0,4.0,2.0,4.0,4.0,4.0,4.0
17.0,0.0,4229.743589743592,4184.102564102565,4211.282051282053,4185.128205128207,4185.128205128207,4189.743589743592,4190.769230769232,4198.97435897436,4202.051282051283,4187.179487179489,4195.897435897437,4214.3589743589755,4202.051282051283,4216.923076923078,0.0,2047.0,2048.0,0.0,0.0,4.0,4.0,4.0,4.0,0.0,4.0,4.0,4.0,4.0,0.0,4.0,2.0,4.0,4.0,4.0,4.0
18.0,0.0,4228.20512820513,4186.153846153848,4212.8205128205145,4187.179487179489,4185.641025641027,4186.666666666668,4186.666666666668,4201.0256410256425,4202.051282051283,4185.128205128207,4194.871794871797,4216.923076923078,4202.051282051283,4216.923076923078,0.0,2047.0,2048.0,0.0,0.0,4.0,4.0,4.0,4.0,0.0,4.0,4.0,4.0,4.0,0.0,4.0,2.0,4.0,4.0,4.0,4.0
19.0,0.0,4209.23076923077,4167.692307692309,4193.846153846155,4191.282051282053,4183.076923076925,4183.076923076925,4181.538461538463,4188.20512820513,4199.487179487181,4184.102564102565,4189.743589743592,4210.769230769232,4193.846153846155,4206.153846153848,0.0,2047.0,2048.0,0.0,0.0,4.0,4.0,4.0,4.0,0.0,4.0,4.0,4.0,4.0,0.0,4.0,2.0,4.0,4.0,4.0,4.0
20.0,0.0,4189.23076923077,4154.871794871797,4184.615384615386,4189.743589743592,4187.179487179489,4182.564102564104,4183.076923076925,4182.051282051283,4197.435897435899,4185.641025641027,4183.589743589745,4213.333333333335,4182.051282051283,4193.846153846155,0.0,2047.0,2048.0,0.0,0.0,4.0,4.0,4.0,4.0,0.0,4.0,4.0,4.0,4.0,0.0,4.0,2.0,4.0,4.0,4.0,4.0
21.0,0.0,4185.641025641027,4153.333333333335,4191.282051282053,4184.615384615386,4185.128205128207,4185.641025641027,4183.076923076925,4185.641025641027,4200.512820512822,4186.666666666668,4186.153846153848,4210.769230769232,4183.589743589745,4193.846153846155,0.0,2047.0,2048.0,0.0,0.0,4.0,4.0,4.0,4.0,0.0,4.0,4.0,4.0,4.0,0.0,4.0,2.0,4.0,4.0,4.0,4.0
22.0,0.0,4177.435897435899,4152.8205128205145,4187.692307692309,4181.0256410256425,4182.564102564104,4194.871794871797,4194.3589743589755,4190.769230769232,4204.102564102565,4186.153846153848,4186.666666666668,4207.692307692309,4181.0256410256425,4185.128205128207,0.0,2047.0,2048.0,0.0,0.0,4.0,4.0,4.0,4.0,0.0,4.0,4.0,4.0,4.0,0.0,4.0,2.0,4.0,4.0,4.0,4.0
23.0,0.0,4156.923076923078,4152.307692307694,4176.923076923078,4181.0256410256425,4185.128205128207,4200.512820512822,4197.94871794872,4194.3589743589755,4203.076923076925,4185.641025641027,4181.538461538463,4210.769230769232,4168.71794871795,4170.256410256412,0.0,2047.0,2048.0,0.0,0.0,4.0,4.0,4.0,4.0,0.0,4.0,4.0,4.0,4.0,0.0,4.0,2.0,4.0,4.0,4.0,4.0
24.0,0.0,4156.923076923078,4153.846153846155,4176.923076923078,4185.128205128207,4185.128205128207,4199.487179487181,4185.128205128207,4201.538461538463,4208.20512820513,4186.153846153848,4187.692307692309,4207.692307692309,4171.794871794873,4174.3589743589755,0.0,2047.0,2048.0,0.0,0.0,4.0,4.0,4.0,4.0,0.0,4.0,4.0,4.0,4.0,0.0,4.0,2.0,4.0,4.0,4.0,4.0
25.0,0.0,4174.3589743589755,4159.487179487181,4187.692307692309,4190.769230769232,4186.666666666668,4200.000000000002,4188.71794871795,4214.871794871797,4216.410256410258,4186.153846153848,4202.051282051283,4216.923076923078,4187.179487179489,4187.692307692309,0.0,2047.0,2048.0,0.0,0.0,4.0,4.0,4.0,4.0,0.0,4.0,4.0,4.0,4.0,0.0,4.0,2.0,4.0,4.0,4.0,4.0
26.0,0.0,4170.256410256412,4162.564102564104,4186.666666666668,4192.8205128205145,4183.076923076925,4196.923076923078,4198.97435897436,4218.97435897436,4216.410256410258,4185.128205128207,4203.076923076925,4217.435897435899,4190.256410256412,4186.153846153848,0.0,2047.0,2048.0,0.0,0.0,4.0,4.0,4.0,4.0,0.0,4.0,4.0,4.0,4.0,0.0,4.0,2.0,4.0,4.0,4.0,4.0
27.0,0.0,4157.94871794872,4160.000000000002,4184.615384615386,4192.307692307694,4184.615384615386,4193.846153846155,4189.23076923077,4207.179487179489,4213.333333333335,4184.615384615386,4197.435897435899,4209.743589743592,4184.615384615386,4179.487179487181,0.0,2047.0,2048.0,0.0,0.0,4.0,4.0,4.0,4.0,0.0,4.0,4.0,4.0,4.0,0.0,4.0,2.0,4.0,4.0,4.0,4.0
28.0,0.0,4158.46153846154,4153.333333333335,4184.102564102565,4193.846153846155,4187.179487179489,4196.923076923078,4182.051282051283,4198.97435897436,4212.307692307694,4184.615384615386,4198.46153846154,4213.333333333335,4180.512820512822,4177.94871794872,0.0,2047.0,2048.0,0.0,0.0,4.0,4.0,4.0,4.0,0.0,4.0,4.0,4.0,4.0,0.0,4.0,2.0,4.0,4.0,4.0,4.0
29.0,0.0,4150.769230769232,4149.23076923077,4168.71794871795,4187.692307692309,4181.0256410256425,4201.0256410256425,4194.3589743589755,4202.051282051283,4211.282051282053,4184.615384615386,4192.307692307694,4207.692307692309,4172.307692307694,4172.8205128205145,0.0,2047.0,2048.0,0.0,0.0,4.0,4.0,4.0,4.0,0.0,4.0,4.0,4.0,4.0,0.0,4.0,2.0,4.0,4.0,4.0,4.0
30.0,0.0,4144.615384615386,4152.8205128205145,4167.179487179489,4185.128205128207,4182.564102564104,4209.743589743592,4204.102564102565,4207.692307692309,4211.282051282053,4185.128205128207,4184.615384615386,4205.641025641027,4168.20512820513,4167.179487179489,0.0,2047.0,2048.0,0.0,0.0,4.0,4.0,4.0,4.0,0.0,4.0,4.0,4.0,4.0,0.0,4.0,2.0,4.0,4.0,4.0,4.0
31.0,0.0,4151.282051282053,4155.897435897437,4179.487179487181,4194.3589743589755,4185.128205128207,4213.846153846155,4202.051282051283,4207.692307692309,4208.20512820513,4185.128205128207,4189.743589743592,4206.153846153848,4173.846153846155,4170.769230769232,0.0,2047.0,2048.0,0.0,0.0,4.0,4.0,4.0,4.0,0.0,4.0,4.0,4.0,4.0,0.0,4.0,2.0,4.0,4.0,4.0,4.0
32.0,0.0,4150.769230769232,4146.666666666668,4177.94871794872,4191.282051282053,4182.564102564104,4203.589743589745,4194.3589743589755,4197.435897435899,4199.487179487181,4185.128205128207,4189.23076923077,4206.153846153848,4169.743589743592,4169.743589743592,0.0,2047.0,2048.0,0.0,0.0,4.0,4.0,4.0,4.0,0.0,4.0,4.0,4.0,4.0,0.0,4.0,2.0,4.0,4.0,4.0,4.0
33.0,0.0,4148.71794871795,4143.076923076925,4174.871794871797,4184.102564102565,4183.589743589745,4203.076923076925,4194.3589743589755,4198.97435897436,4204.615384615386,4185.128205128207,4186.153846153848,4212.8205128205145,4166.666666666668,4168.71794871795,0.0,2047.0,2048.0,0.0,0.0,4.0,4.0,4.0,4.0,0.0,4.0,4.0,4.0,4.0,0.0,4.0,2.0,4.0,4.0,4.0,4.0
34.0,0.0,4154.3589743589755,4152.307692307694,4177.435897435899,4190.256410256412,4184.102564102565,4219.487179487181,4204.102564102565,4216.410256410258,4220.000000000002,4185.128205128207,4193.846153846155,4209.23076923077,4175.897435897437,4174.871794871797,0.0,2047.0,2048.0,0.0,0.0,4.0,4.0,4.0,4.0,0.0,4.0,4.0,4.0,4.0,0.0,4.0,2.0,4.0,4.0,4.0,4.0
35.0,0.0,4152.307692307694,4147.179487179489,4174.871794871797,4192.307692307694,4184.102564102565,4217.435897435899,4205.128205128207,4216.923076923078,4214.871794871797,4185.128205128207,4191.794871794873,4208.71794871795,4174.3589743589755,4172.307692307694,0.0,2047.0,2048.0,0.0,0.0,4.0,4.0,4.0,4.0,0.0,4.0,4.0,4.0,4.0,0.0,4.0,2.0,4.0,4.0,4.0,4.0
36.0,0.0,4139.487179487181,4131.282051282053,4163.076923076925,4183.076923076925,4181.0256410256425,4200.512820512822,4198.97435897436,4206.666666666668,4200.512820512822,4185.128205128207,4181.538461538463,4205.641025641027,4161.538461538463,4155.897435897437,0.0,2047.0,2048.0,0.0,0.0,4.0,4.0,4.0,4.0,0.0,4.0,4.0,4.0,4.0,0.0,4.0,2.0,4.0,4.0,4.0,4.0
37.0,0.0,4138.97435897436,4137.94871794872,4163.589743589745,4184.102564102565,4182.051282051283,4198.46153846154,4201.0256410256425,4210.256410256412,4207.179487179489,4185.128205128207,4188.20512820513,4201.0256410256425,4162.564102564104,4151.794871794873,0.0,2047.0,2048.0,0.0,0.0,4.0,4.0,4.0,4.0,0.0,4.0,4.0,4.0,4.0,0.0,4.0,2.0,4.0,4.0,4.0,4.0
38.0,0.0,4151.794871794873,4155.384615384617,4180.000000000002,4193.333333333335,4185.128205128207,4209.743589743592,4206.153846153848,4218.97435897436,4217.435897435899,4185.128205128207,4197.94871794872,4209.743589743592,4173.333333333335,4166.153846153848,0.0,2047.0,2048.0,0.0,0.0,4.0,4.0,4.0,4.0,0.0,4.0,4.0,4.0,4.0,0.0,4.0,2.0,4.0,4.0,4.0,4.0
39.0,0.0,4148.71794871795,4151.794871794873,4176.410256410258,4191.794871794873,4182.051282051283,4211.794871794873,4205.641025641027,4212.8205128205145,4207.179487179489,4185.128205128207,4190.256410256412,4207.179487179489,4171.794871794873,4172.307692307694,0.0,2047.0,2048.0,0.0,0.0,4.0,4.0,4.0,4.0,0.0,4.0,4.0,4.0,4.0,0.0,4.0,2.0,4.0,4.0,4.0,4.0
40.0,0.0,4137.94871794872,4137.94871794872,4166.153846153848,4186.153846153848,4182.564102564104,4200.512820512822,4199.487179487181,4202.564102564104,4195.897435897437,4185.128205128207,4182.051282051283,4205.641025641027,4159.487179487181,4162.051282051283,0.0,2047.0,2048.0,0.0,0.0,4.0,4.0,4.0,4.0,0.0,4.0,4.0,4.0,4.0,0.0,4.0,2.0,4.0,4.0,4.0,4.0
41.0,0.0,4139.487179487181,4135.897435897437,4167.692307692309,4184.615384615386,4183.589743589745,4197.435897435899,4197.435897435899,4200.000000000002,4197.435897435899,4185.128205128207,4184.615384615386,4207.692307692309,4158.46153846154,4158.97435897436,0.0,2047.0,2048.0,0.0,0.0,4.0,4.0,4.0,4.0,0.0,4.0,4.0,4.0,4.0,0.0,4.0,2.0,4.0,4.0,4.0,4.0
42.0,0.0,4145.641025641027,4146.666666666668,4168.20512820513,4185.128205128207,4182.051282051283,4203.076923076925,4198.97435897436,4197.94871794872,4196.923076923078,4185.128205128207,4182.564102564104,4203.076923076925,4165.641025641027,4165.641025641027,0.0,2047.0,2048.0,0.0,0.0,4.0,4.0,4.0,4.0,0.0,4.0,4.0,4.0,4.0,0.0,4.0,2.0,4.0,4.0,4.0,4.0
43.0,0.0,4149.23076923077,4152.8205128205145,4169.743589743592,4186.153846153848,4182.564102564104,4203.589743589745,4191.794871794873,4198.97435897436,4197.435897435899,4185.128205128207,4180.000000000002,4207.692307692309,4169.743589743592,4168.20512820513,0.0,2047.0,2048.0,0.0,0.0,4.0,4.0,4.0,4.0,0.0,4.0,4.0,4.0,4.0,0.0,4.0,2.0,4.0,4.0,4.0,4.0
44.0,0.0,4154.3589743589755,4153.333333333335,4167.179487179489,4185.128205128207,4179.487179487181,4198.46153846154,4184.102564102565,4202.564102564104,4200.000000000002,4185.128205128207,4185.128205128207,4206.153846153848,4175.384615384617,4168.71794871795,0.0,2047.0,2048.0,0.0,0.0,4.0,4.0,4.0,4.0,0.0,4.0,4.0,4.0,4.0,0.0,4.0,2.0,4.0,4.0,4.0,4.0
45.0,0.0,4166.153846153848,4157.94871794872,4170.769230769232,4187.179487179489,4183.076923076925,4191.794871794873,4187.179487179489,4200.512820512822,4192.8205128205145,4185.128205128207,4185.641025641027,4207.179487179489,4182.564102564104,4175.384615384617,0.0,2047.0,2048.0,0.0,0.0,4.0,4.0,4.0,4.0,0.0,4.0,4.0,4.0,4.0,0.0,4.0,2.0,4.0,4.0,4.0,4.0
46.0,0.0,4190.256410256412,4166.666666666668,4184.615384615386,4192.8205128205145,4185.641025641027,4185.641025641027,4188.20512820513,4193.846153846155,4186.666666666668,4185.128205128207,4184.615384615386,4208.71794871795,4188.71794871795,4191.794871794873,0.0,2047.0,2048.0,0.0,0.0,4.0,4.0,4.0,4.0,0.0,4.0,4.0,4.0,4.0,0.0,4.0,2.0,4.0,4.0,4.0,4.0
47.0,0.0,4220.000000000002,4177.435897435899,4197.94871794872,4201.0256410256425,4182.564102564104,4184.615384615386,4183.076923076925,4191.282051282053,4187.692307692309,4185.128205128207,4193.846153846155,4204.615384615386,4200.512820512822,4211.794871794873,0.0,2047.0,2048.0,0.0,0.0,4.0,4.0,4.0,4.0,0.0,4.0,4.0,4.0,4.0,0.0,4.0,2.0,4.0,4.0,4.0,4.0
48.0,0.0,4242.564102564104,4189.743589743592,4205.641025641027,4208.71794871795,4183.589743589745,4185.128205128207,4179.487179487181,4187.179487179489,4185.128205128207,4185.128205128207,4202.564102564104,4210.256410256412,4212.307692307694,4229.23076923077,0.0,2047.0,2048.0,0.0,0.0,4.0,4.0,4.0,4.0,0.0,4.0,4.0,4.0,4.0,0.0,4.0,2.0,4.0,4.0,4.0,4.0
49.0,0.0,4260.512820512822,4199.487179487181,4206.666666666668,4212.307692307694,4181.0256410256425,4183.076923076925,4180.000000000002,4180.000000000002,4182.051282051283,4185.128205128207,4200.512820512822,4208.71794871795,4220.512820512822,4241.538461538463,0.0,2047.0,2048.0,0.0,0.0,4.0,4.0,4.0,4.0,0.0,4.0,4.0,4.0,4.0,0.0,4.0,2.0,4.0,4.0,4.0,4.0
50.0,0.0,4283.589743589745,4205.128205128207,4214.871794871797,4221.538461538463,4180.512820512822,4183.076923076925,4185.128205128207,4183.076923076925,4183.076923076925,4185.128205128207,4202.051282051283,4207.692307692309,4231.794871794873,4253.333333333335,0.0,2047.0,2048.0,0.0,0.0,4.0,4.0,4.0,4.0,0.0,4.0,4.0,4.0,4.0,0.0,4.0,2.0,4.0,4.0,4.0,4.0
51.0,0.0,4294.871794871797,4207.692307692309,4222.564102564104,4231.282051282053,4181.538461538463,4183.589743589745,4181.538461538463,4187.692307692309,4180.000000000002,4185.128205128207,4206.153846153848,4210.769230769232,4234.871794871797,4263.076923076925,0.0,2047.0,2048.0,0.0,0.0,4.0,4.0,4.0,4.0,0.0,4.0,4.0,4.0,4.0,0.0,4.0,2.0,4.0,4.0,4.0,4.0
52.0,0.0,4286.666666666668,4209.743589743592,4220.512820512822,4223.076923076925,4181.538461538463,4181.538461538463,4170.256410256412,4181.0256410256425,4176.410256410258,4185.128205128207,4203.076923076925,4208.71794871795,4228.20512820513,4262.051282051283,0.0,2047.0,2048.0,0.0,0.0,4.0,4.0,4.0,4.0,0.0,4.0,4.0,4.0,4.0,0.0,4.0,2.0,4.0,4.0,4.0,4.0
53.0,0.0,4284.102564102565,4211.794871794873,4222.564102564104,4217.435897435899,4185.641025641027,4183.589743589745,4174.871794871797,4181.0256410256425,4183.076923076925,4185.128205128207,4205.641025641027,4214.871794871797,4228.20512820513,4257.435897435899,0.0,2047.0,2048.0,0.0,0.0,4.0,4.0,4.0,4.0,0.0,4.0,4.0,4.0,4.0,0.0,4.0,2.0,4.0,4.0,4.0,4.0
54.0,0.0,4278.46153846154,4210.256410256412,4221.0256410256425,4228.20512820513,4184.102564102565,4190.256410256412,4189.743589743592,4197.94871794872,4188.71794871795,4185.128205128207,4216.410256410258,4213.333333333335,4225.641025641027,4252.307692307694,0.0,2047.0,2048.0,0.0,0.0,4.0,4.0,4.0,4.0,0.0,4.0,4.0,4.0,4.0,0.0,4.0,2.0,4.0,4.0,4.0,4.0
55.0,0.0,4263.589743589745,4212.8205128205145,4214.871794871797,4227.179487179489,4183.589743589745,4195.384615384617,4193.333333333335,4206.666666666668,4187.179487179489,4185.128205128207,4215.384615384617,4210.256410256412,4217.94871794872,4240.512820512822,0.0,2047.0,2048.0,0.0,0.0,4.0,4.0,4.0,4.0,0.0,4.0,4.0,4.0,4.0,0.0,4.0,2.0,4.0,4.0,4.0,4.0
56.0,0.0,4252.8205128205145,4208.71794871795,4210.769230769232,4214.871794871797,4184.102564102565,4197.94871794872,4189.743589743592,4197.435897435899,4185.128205128207,4185.641025641027,4207.692307692309,4215.897435897437,4215.897435897437,4228.20512820513,0.0,2047.0,2048.0,0.0,0.0,4.0,4.0,4.0,4.0,0.0,4.0,4.0,4.0,4.0,0.0,4.0,2.0,4.0,4.0,4.0,4.0
57.0,0.0,4238.46153846154,4190.256410256412,4198.97435897436,4215.384615384617,4181.0256410256425,4205.641025641027,4197.435897435899,4195.897435897437,4190.256410256412,4185.128205128207,4204.615384615386,4211.282051282053,4210.256410256412,4215.897435897437,0.0,2047.0,2048.0,0.0,0.0,4.0,4.0,4.0,4.0,0.0,4.0,4.0,4.0,4.0,0.0,4.0,2.0,4.0,4.0,4.0,4.0
58.0,0.0,4211.794871794873,4178.46153846154,4188.71794871795,4208.71794871795,4183.076923076925,4217.435897435899,4212.307692307694,4209.23076923077,4198.46153846154,4184.615384615386,4196.923076923078,4212.8205128205145,4190.769230769232,4198.97435897436,0.0,2047.0,2048.0,0.0,0.0,4.0,4.0,4.0,4.0,0.0,4.0,4.0,4.0,4.0,0.0,4.0,2.0,4.0,4.0,4.0,4.0
59.0,0.0,4192.307692307694,4180.000000000002,4183.076923076925,4196.923076923078,4185.128205128207,4218.46153846154,4215.897435897437,4216.923076923078,4201.0256410256425,4185.641025641027,4190.256410256412,4211.282051282053,4180.000000000002,4191.282051282053,0.0,2047.0,2048.0,0.0,0.0,4.0,4.0,4.0,4.0,0.0,4.0,4.0,4.0,4.0,0.0,4.0,2.0,4.0,4.0,4.0,4.0
60.0,0.0,4197.94871794872,4182.564102564104,4187.179487179489,4204.102564102565,4187.692307692309,4207.692307692309,4206.666666666668,4215.897435897437,4198.97435897436,4186.153846153848,4195.897435897437,4207.179487179489,4187.179487179489,4194.871794871797,0.0,2047.0,2048.0,0.0,0.0,4.0,4.0,4.0,4.0,0.0,4.0,4.0,4.0,4.0,0.0,4.0,2.0,4.0,4.0,4.0,4.0
61.0,0.0,4200.512820512822,4184.615384615386,4191.794871794873,4209.23076923077,4186.666666666668,4200.512820512822,4200.000000000002,4210.769230769232,4201.0256410256425,4185.641025641027,4202.051282051283,4212.8205128205145,4192.307692307694,4192.307692307694,0.0,2047.0,2048.0,0.0,0.0,4.0,4.0,4.0,4.0,0.0,4.0,4.0,4.0,4.0,0.0,4.0,2.0,4.0,4.0,4.0,4.0
62.0,0.0,4178.46153846154,4180.000000000002,4178.97435897436,4198.97435897436,4182.564102564104,4200.000000000002,4196.923076923078,4203.589743589745,4200.000000000002,4184.615384615386,4198.46153846154,4208.20512820513,4185.128205128207,4181.0256410256425,0.0,2047.0,2048.0,0.0,0.0,4.0,4.0,4.0,4.0,0.0,4.0,4.0,4.0,4.0,0.0,4.0,2.0,4.0,4.0,4.0,4.0
63.0,0.0,4166.153846153848,4169.23076923077,4174.3589743589755,4195.384615384617,4184.615384615386,4201.0256410256425,4195.384615384617,4200.000000000002,4193.333333333335,4184.615384615386,4197.94871794872,4208.71794871795,4181.538461538463,4176.923076923078,0.0,2047.0,2048.0,0.0,0.0,4.0,4.0,4.0,4.0,0.0,4.0,4.0,4.0,4.0,0.0,4.0,2.0,4.0,4.0,4.0,4.0
64.0,0.0,4170.769230769232,4170.769230769232,4178.97435897436,4198.46153846154,4184.102564102565,4198.46153846154,4194.3589743589755,4201.0256410256425,4192.8205128205145,4185.641025641027,4202.564102564104,4211.282051282053,4186.666666666668,4175.384615384617,679.0,2047.0,2048.0,0.0,0.0,4.0,4.0,4.0,4.0,0.0,4.0,4.0,4.0,4.0,0.0,4.0,2.0,4.0,4.0,4.0,4.0
65.0,0.0,4168.71794871795,4175.384615384617,4175.897435897437,4199.487179487181,4184.102564102565,4196.410256410258,4189.23076923077,4200.000000000002,4196.410256410258,4185.128205128207,4200.512820512822,4209.743589743592,4184.615384615386,4171.282051282053,826.0,2047.0,2048.0,0.0,0.0,4.0,4.0,4.0,4.0,0.0,4.0,4.0,4.0,4.0,0.0,4.0,2.0,4.0,4.0,4.0,4.0
66.0,0.0,4163.589743589745,4171.794871794873,4176.410256410258,4203.076923076925,4186.153846153848,4198.97435897436,4182.564102564104,4200.000000000002,4198.46153846154,4184.615384615386,4200.000000000002,4212.8205128205145,4184.102564102565,4177.435897435899,800.0,2047.0,2048.0,0.0,0.0,4.0,4.0,4.0,4.0,0.0,4.0,4.0,4.0,4.0,0.0,4.0,2.0,4.0,4.0,4.0,4.0
67.0,0.0,4165.641025641027,4169.743589743592,4177.435897435899,4202.564102564104,4184.615384615386,4200.000000000002,4183.076923076925,4202.051282051283,4198.46153846154,4186.153846153848,4202.564102564104,4206.666666666668,4187.692307692309,4182.051282051283,785.0,2047.0,2048.0,0.0,0.0,4.0,4.0,4.0,4.0,0.0,4.0,4.0,4.0,4.0,0.0,4.0,2.0,4.0,4.0,4.0,4.0
68.0,0.0,4163.076923076925,4170.256410256412,4178.46153846154,4197.435897435899,4184.615384615386,4199.487179487181,4192.8205128205145,4198.97435897436,4198.97435897436,4186.666666666668,4199.487179487181,4208.20512820513,4181.0256410256425,4174.3589743589755,0.0,2047.0,2048.0,0.0,0.0,4.0,4.0,4.0,4.0,0.0,4.0,4.0,4.0,4.0,0.0,4.0,2.0,4.0,4.0,4.0,4.0
69.0,0.0,4158.46153846154,4170.769230769232,4176.923076923078,4197.94871794872,4184.102564102565,4205.641025641027,4200.512820512822,4199.487179487181,4197.94871794872,4185.641025641027,4197.435897435899,4211.282051282053,4171.794871794873,4166.153846153848,777.0,2047.0,2048.0,0.0,0.0,4.0,4.0,4.0,4.0,0.0,4.0,4.0,4.0,4.0,0.0,4.0,2.0,4.0,4.0,4.0,4.0
70.0,0.0,4154.871794871797,4169.743589743592,4171.282051282053,4199.487179487181,4184.102564102565,4212.8205128205145,4194.3589743589755,4202.564102564104,4198.97435897436,4186.153846153848,4194.871794871797,4206.666666666668,4171.794871794873,4167.179487179489,803.0,2047.0,2048.0,0.0,0.0,4.0,4.0,4.0,4.0,0.0,4.0,4.0,4.0,4.0,0.0,4.0,2.0,4.0,4.0,4.0,4.0
71.0,0.0,4150.769230769232,4167.179487179489,4167.179487179489,4197.94871794872,4185.641025641027,4211.794871794873,4181.538461538463,4195.384615384617,4196.410256410258,4186.153846153848,4189.743589743592,4209.743589743592,4173.333333333335,4168.20512820513,794.0,2047.0,2048.0,0.0,0.0,4.0,4.0,4.0,4.0,0.0,4.0,4.0,4.0,4.0,0.0,4.0,2.0,4.0,4.0,4.0,4.0
72.0,0.0,4148.71794871795,4167.179487179489,4165.641025641027,4198.46153846154,4183.589743589745,4208.20512820513,4189.743589743592,4189.743589743592,4189.23076923077,4184.615384615386,4187.692307692309,4206.666666666668,4171.794871794873,4166.666666666668,644.0,2047.0,2048.0,0.0,0.0,4.0,4.0,4.0,4.0,0.0,4.0,4.0,4.0,4.0,0.0,4.0,2.0,4.0,4.0,4.0,4.0
73.0,0.0,4151.794871794873,4168.20512820513,4173.333333333335,4201.0256410256425,4184.615384615386,4206.666666666668,4199.487179487181,4195.384615384617,4190.769230769232,4184.615384615386,4188.71794871795,4205.641025641027,4171.794871794873,4166.666666666668,0.0,2047.0,2048.0,0.0,0.0,4.0,4.0,4.0,4.0,0.0,4.0,4.0,4.0,4.0,0.0,4.0,2.0,4.0,4.0,4.0,4.0
74.0,0.0,4150.256410256412,4159.487179487181,4175.384615384617,4199.487179487181,4185.641025641027,4206.153846153848,4188.20512820513,4201.0256410256425,4198.46153846154,4185.641025641027,4185.641025641027,4207.692307692309,4169.743589743592,4161.0256410256425,859.0,2047.0,2048.0,0.0,0.0,4.0,4.0,4.0,4.0,0.0,4.0,4.0,4.0,4.0,0.0,4.0,2.0,4.0,4.0,4.0,4.0
75.0,0.0,4142.564102564104,4152.8205128205145,4166.153846153848,4193.333333333335,4185.128205128207,4213.846153846155,4186.153846153848,4199.487179487181,4199.487179487181,4185.641025641027,4184.615384615386,4207.179487179489,4169.23076923077,4155.897435897437,845.0,2047.0,2048.0,0.0,0.0,4.0,4.0,4.0,4.0,0.0,4.0,4.0,4.0,4.0,0.0,4.0,2.0,4.0,4.0,4.0,4.0
76.0,0.0,4143.589743589745,4158.97435897436,4163.589743589745,4190.769230769232,4186.666666666668,4219.487179487181,4203.076923076925,4198.46153846154,4198.46153846154,4185.641025641027,4183.589743589745,4212.307692307694,4167.692307692309,4158.46153846154,847.0,2047.0,2048.0,0.0,0.0,4.0,4.0,4.0,4.0,0.0,4.0,4.0,4.0,4.0,0.0,4.0,2.0,4.0,4.0,4.0,4.0
77.0,0.0,4138.97435897436,4159.487179487181,4158.97435897436,4188.71794871795,4183.076923076925,4209.743589743592,4204.615384615386,4197.94871794872,4197.94871794872,4185.128205128207,4176.410256410258,4206.666666666668,4157.94871794872,4154.3589743589755,180.0,2047.0,2048.0,0.0,0.0,4.0,4.0,4.0,4.0,0.0,4.0,4.0,4.0,4.0,0.0,4.0,2.0,4.0,4.0,4.0,4.0
78.0,0.0,4128.20512820513,4150.769230769232,4158.46153846154,4183.589743589745,4183.589743589745,4198.46153846154,4188.71794871795,4189.743589743592,4190.769230769232,4184.102564102565,4172.307692307694,4206.153846153848,4156.923076923078,4148.20512820513,859.0,2047.0,2048.0,0.0,0.0,4.0,4.0,4.0,4.0,0.0,4.0,4.0,4.0,4.0,0.0,4.0,2.0,4.0,4.0,4.0,4.0
79.0,0.0,4132.8205128205145,4152.307692307694,4166.153846153848,4180.512820512822,4185.128205128207,4198.97435897436,4186.666666666668,4185.128205128207,4186.666666666668,4185.641025641027,4182.051282051283,4210.256410256412,4168.20512820513,4160.000000000002,845.0,2047.0,2048.0,0.0,0.0,4.0,4.0,4.0,4.0,0.0,4.0,4.0,4.0,4.0,0.0,4.0,2.0,4.0,4.0,4.0,4.0
80.0,0.0,4144.615384615386,4162.564102564104,4174.3589743589755,4188.20512820513,4184.102564102565,4204.102564102565,4194.3589743589755,4191.794871794873,4191.794871794873,4187.179487179489,4192.307692307694,4206.666666666668,4171.282051282053,4171.282051282053,847.0,2047.0,2048.0,0.0,0.0,4.0,4.0,4.0,4.0,0.0,4.0,4.0,4.0,4.0,0.0,4.0,2.0,4.0,4.0,4.0,4.0
81.0,0.0,4152.307692307694,4169.743589743592,4181.0256410256425,4200.000000000002,4185.641025641027,4207.179487179489,4196.410256410258,4196.410256410258,4191.282051282053,4186.153846153848,4191.794871794873,4211.282051282053,4169.743589743592,4171.794871794873,180.0,2047.0,2048.0,0.0,0.0,4.0,4.0,4.0,4.0,0.0,4.0,4.0,4.0,4.0,0.0,4.0,2.0,4.0,4.0,4.0,4.0
82.0,0.0,4153.846153846155,4167.692307692309,4175.384615384617,4200.000000000002,4183.589743589745,4204.102564102565,4190.769230769232,4189.743589743592,4187.179487179489,4185.641025641027,4187.179487179489,4207.692307692309,4170.769230769232,4170.256410256412,859.0,2047.0,2048.0,0.0,0.0,4.0,4.0,4.0,4.0,0.0,4.0,4.0,4.0,4.0,0.0,4.0,2.0,4.0,4.0,4.0,4.0
83.0,0.0,4150.256410256412,4161.0256410256425,4168.20512820513,4189.23076923077,4184.615384615386,4200.000000000002,4184.615384615386,4181.538461538463,4184.102564102565,4185.641025641027,4180.512820512822,4201.0256410256425,4164.102564102565,4161.0256410256425,845.0,2047.0,2048.0,0.0,0.0,4.0,4.0,4.0,4.0,0.0,4.0,4.0,4.0,4.0,0.0,4.0,2.0,4.0,4.0,4.0,4.0
84.0,0.0,4145.128205128207,4162.564102564104,4172.307692307694,4190.256410256412,4184.102564102565,4205.641025641027,4191.282051282053,4185.128205128207,4186.666666666668,4186.153846153848,4181.0256410256425,4203.076923076925,4164.102564102565,4157.94871794872,847.0,2047.0,2048.0,0.0,0.0,4.0,4.0,4.0,4.0,0.0,4.0,4.0,4.0,4.0,0.0,4.0,2.0,4.0,4.0,4.0,4.0
85.0,0.0,4149.743589743592,4172.8205128205145,4178.46153846154,4202.051282051283,4182.051282051283,4216.410256410258,4204.615384615386,4197.435897435899,4196.923076923078,4185.641025641027,4194.3589743589755,4204.102564102565,4179.487179487181,4171.282051282053,180.0,2047.0,2048.0,0.0,0.0,4.0,4.0,4.0,4.0,0.0,4.0,4.0,4.0,4.0,0.0,4.0,2.0,4.0,4.0,4.0,4.0
86.0,0.0,4158.46153846154,4171.794871794873,4178.46153846154,4204.615384615386,4184.615384615386,4213.846153846155,4206.153846153848,4205.128205128207,4200.512820512822,4185.641025641027,4198.46153846154,4211.794871794873,4188.20512820513,4177.435897435899,859.0,2047.0,2048.0,0.0,0.0,4.0,4.0,4.0,4.0,0.0,4.0,4.0,4.0,4.0,0.0,4.0,2.0,4.0,4.0,4.0,4.0
87.0,0.0,4155.384615384617,4164.615384615386,4172.307692307694,4198.97435897436,4183.076923076925,4204.102564102565,4198.46153846154,4200.512820512822,4193.333333333335,4185.128205128207,4191.794871794873,4208.71794871795,4183.076923076925,4171.282051282053,845.0,2047.0,2048.0,0.0,0.0,4.0,4.0,4.0,4.0,0.0,4.0,4.0,4.0,4.0,0.0,4.0,2.0,4.0,4.0,4.0,4.0
88.0,0.0,4160.000000000002,4169.743589743592,4179.487179487181,4196.923076923078,4183.589743589745,4202.564102564104,4198.97435897436,4197.435897435899,4187.692307692309,4185.641025641027,4191.794871794873,4207.179487179489,4180.000000000002,4174.3589743589755,847.0,2047.0,2048.0,0.0,0.0,4.0,4.0,4.0,4.0,0.0,4.0,4.0,4.0,4.0,0.0,4.0,2.0,4.0,4.0,4.0,4.0
89.0,0.0,4180.000000000002,4182.564102564104,4189.23076923077,4202.051282051283,4184.615384615386,4204.102564102565,4202.564102564104,4201.0256410256425,4189.23076923077,4186.153846153848,4201.0256410256425,4215.897435897437,4190.256410256412,4186.666666666668,180.0,2047.0,2048.0,0.0,0.0,4.0,4.0,4.0,4.0,0.0,4.0,4.0,4.0,4.0,0.0,4.0,2.0,4.0,4.0,4.0,4.0
90.0,0.0,4195.897435897437,4189.743589743592,4188.20512820513,4208.71794871795,4183.076923076925,4201.0256410256425,4199.487179487181,4203.076923076925,4191.794871794873,4184.615384615386,4205.128205128207,4212.8205128205145,4208.20512820513,4198.97435897436,859.0,2047.0,2048.0,0.0,0.0,4.0,4.0,4.0,4.0,0.0,4.0,4.0,4.0,4.0,0.0,4.0,2.0,4.0,4.0,4.0,4.0
91.0,0.0,4212.8205128205145,4198.97435897436,4200.000000000002,4212.307692307694,4185.641025641027,4200.512820512822,4191.282051282053,4198.46153846154,4190.256410256412,4184.615384615386,4203.589743589745,4212.8205128205145,4213.333333333335,4211.282051282053,845.0,2047.0,2048.0,0.0,0.0,4.0,4.0,4.0,4.0,0.0,4.0,4.0,4.0,4.0,0.0,4.0,2.0,4.0,4.0,4.0,4.0
92.0,0.0,4238.97435897436,4211.794871794873,4213.333333333335,4218.97435897436,4182.564102564104,4197.94871794872,4185.128205128207,4189.743589743592,4185.641025641027,4185.641025641027,4206.153846153848,4211.794871794873,4215.384615384617,4223.076923076925,847.0,2047.0,2048.0,0.0,0.0,4.0,4.0,4.0,4.0,0.0,4.0,4.0,4.0,4.0,0.0,4.0,2.0,4.0,4.0,4.0,4.0
93.0,0.0,4265.128205128207,4218.46153846154,4216.410256410258,4226.666666666668,4182.564102564104,4190.256410256412,4187.692307692309,4186.666666666668,4185.128205128207,4186.666666666668,4213.333333333335,4212.307692307694,4230.256410256412,4237.435897435899,180.0,2047.0,2048.0,0.0,0.0,4.0,4.0,4.0,4.0,0.0,4.0,4.0,4.0,4.0,0.0,4.0,2.0,4.0,4.0,4.0,4.0
94.0,0.0,4281.538461538463,4222.051282051283,4221.0256410256425,4227.692307692309,4186.153846153848,4185.128205128207,4183.589743589745,4188.20512820513,4186.666666666668,4185.128205128207,4218.46153846154,4218.97435897436,4240.512820512822,4254.3589743589755,859.0,2047.0,2048.0,0.0,0.0,4.0,4.0,4.0,4.0,0.0,4.0,4.0,4.0,4.0,0.0,4.0,2.0,4.0,4.0,4.0,4.0
95.0,0.0,4289.23076923077,4227.692307692309,4225.128205128207,4223.076923076925,4184.615384615386,4182.564102564104,4170.769230769232,4186.666666666668,4185.128205128207,4183.076923076925,4215.384615384617,4213.333333333335,4239.487179487181,4262.051282051283,845.0,2047.0,2048.0,0.0,0.0,4.0,4.0,4.0,4.0,0.0,4.0,4.0,4.0,4.0,0.0,4.0,2.0,4.0,4.0,4.0,4.0
96.0,0.0,4293.333333333335,4230.769230769232,4230.769230769232,4221.0256410256425,4184.102564102565,4182.051282051283,4173.333333333335,4184.102564102565,4184.102564102565,4184.615384615386,4213.333333333335,4214.3589743589755,4243.589743589745,4257.94871794872,847.0,2047.0,2048.0,0.0,0.0,4.0,4.0,4.0,4.0,0.0,4.0,4.0,4.0,4.0,0.0,4.0,2.0,4.0,4.0,4.0,4.0
97.0,0.0,4292.8205128205145,4227.179487179489,4229.23076923077,4224.102564102565,4183.076923076925,4182.051282051283,4182.051282051283,4185.641025641027,4185.641025641027,4186.153846153848,4221.538461538463,4214.3589743589755,4251.282051282053,4256.923076923078,180.0,2047.0,2048.0,0.0,0.0,4.0,4.0,4.0,4.0,0.0,4.0,4.0,4.0,4.0,0.0,4.0,2.0,4.0,4.0,4.0,4.0
98.0,0.0,4282.051282051283,4217.435897435899,4224.615384615386,4224.615384615386,4182.564102564104,4184.615384615386,4179.487179487181,4185.641025641027,4185.128205128207,4186.153846153848,4226.153846153848,4212.307692307694,4248.20512820513,4257.94871794872,859.0,2047.0,2048.0,0.0,0.0,4.0,4.0,4.0,4.0,0.0,4.0,4.0,4.0,4.0,0.0,4.0,2.0,4.0,4.0,4.0,4.0
99.0,0.0,4268.20512820513,4212.307692307694,4221.538461538463,4217.94871794872,4183.589743589745,4192.307692307694,4179.487179487181,4184.615384615386,4185.641025641027,4185.641025641027,4222.564102564104,4216.923076923078,4239.487179487181,4252.307692307694,845.0,2047.0,2048.0,0.0,0.0,4.0,4.0,4.0,4.0,0.0,4.0,4.0,4.0,4.0,0.0,4.0,2.0,4.0,4.0,4.0,4.0
100.0,0.0,4258.46153846154,4216.410256410258,4214.871794871797,4214.871794871797,4182.051282051283,4198.46153846154,4187.692307692309,4185.641025641027,4186.666666666668,4184.615384615386,4221.538461538463,4214.871794871797,4234.871794871797,4243.076923076925,847.0,2047.0,2048.0,0.0,0.0,4.0,4.0,4.0,4.0,0.0,4.0,4.0,4.0,4.0,0.0,4.0,2.0,4.0,4.0,4.0,4.0
101.0,0.0,4252.307692307694,4216.410256410258,4216.923076923078,4220.000000000002,4183.589743589745,4193.846153846155,4185.128205128207,4187.179487179489,4188.20512820513,4184.615384615386,4224.615384615386,4218.46153846154,4232.8205128205145,4241.538461538463,180.0,2047.0,2048.0,0.0,0.0,4.0,4.0,4.0,4.0,0.0,4.0,4.0,4.0,4.0,0.0,4.0,2.0,4.0,4.0,4.0,4.0
102.0,0.0,4237.94871794872,4202.564102564104,4215.897435897437,4216.923076923078,4184.615384615386,4186.666666666668,4175.897435897437,4186.666666666668,4187.692307692309,4186.666666666668,4223.076923076925,4215.897435897437,4227.692307692309,4236.410256410258,859.0,2047.0,2048.0,0.0,0.0,4.0,4.0,4.0,4.0,0.0,4.0,4.0,4.0,4.0,0.0,4.0,2.0,4.0,4.0,4.0,4.0
103.0,0.0,4221.0256410256425,4196.410256410258,4205.641025641027,4204.615384615386,4184.615384615386,4190.769230769232,4178.97435897436,4185.641025641027,4186.666666666668,4186.666666666668,4214.3589743589755,4209.743589743592,4212.307692307694,4216.410256410258,845.0,2047.0,2048.0,0.0,0.0,4.0,4.0,4.0,4.0,0.0,4.0,4.0,4.0,4.0,0.0,4.0,2.0,4.0,4.0,4.0,4.0
104.0,0.0,4209.743589743592,4202.051282051283,4197.94871794872,4197.94871794872,4185.128205128207,4198.97435897436,4186.666666666668,4188.71794871795,4188.71794871795,4185.641025641027,4205.128205128207,4214.3589743589755,4193.846153846155,4200.512820512822,847.0,2047.0,2048.0,0.0,0.0,4.0,4.0,4.0,4.0,0.0,4.0,4.0,4.0,4.0,0.0,4.0,2.0,4.0,4.0,4.0,4.0
105.0,0.0,4195.384615384617,4195.384615384617,4189.23076923077,4190.256410256412,4182.051282051283,4200.512820512822,4187.179487179489,4191.282051282053,4189.743589743592,4186.666666666668,4200.000000000002,4208.71794871795,4184.615384615386,4193.333333333335,180.0,2047.0,2048.0,0.0,0.0,4.0,4.0,4.0,4.0,0.0,4.0,4.0,4.0,4.0,0.0,4.0,2.0,4.0,4.0,4.0,4.0
106.0,0.0,4186.153846153848,4183.589743589745,4186.153846153848,4185.641025641027,4183.589743589745,4200.512820512822,4184.102564102565,4187.179487179489,4186.153846153848,4186.666666666668,4197.435897435899,4209.23076923077,4185.641025641027,4188.71794871795,859.0,2047.0,2048.0,0.0,0.0,4.0,4.0,4.0,4.0,0.0,4.0,4.0,4.0,4.0,0.0,4.0,2.0,4.0,4.0,4.0,4.0
107.0,0.0,4182.564102564104,4182.051282051283,4185.641025641027,4184.615384615386,4184.102564102565,4196.410256410258,4182.564102564104,4181.0256410256425,4183.589743589745,4185.128205128207,4195.897435897437,4211.794871794873,4186.153846153848,4183.589743589745,845.0,2047.0,2048.0,0.0,0.0,4.0,4.0,4.0,4.0,0.0,4.0,4.0,4.0,4.0,0.0,4.0,2.0,4.0,4.0,4.0,4.0
108.0,0.0,4171.282051282053,4181.0256410256425,4184.615384615386,4184.615384615386,4184.615384615386,4186.666666666668,4175.897435897437,4179.487179487181,4183.589743589745,4185.641025641027,4194.871794871797,4205.641025641027,4182.564102564104,4178.97435897436,847.0,2047.0,2048.0,0.0,0.0,4.0,4.0,4.0,4.0,0.0,4.0,4.0,4.0,4.0,0.0,4.0,2.0,4.0,4.0,4.0,4.0
109.0,0.0,4163.589743589745,4171.282051282053,4185.128205128207,4186.666666666668,4187.179487179489,4182.564102564104,4168.71794871795,4182.051282051283,4184.615384615386,4186.153846153848,4194.871794871797,4209.23076923077,4180.512820512822,4174.871794871797,180.0,2047.0,2048.0,0.0,0.0,4.0,4.0,4.0,4.0,0.0,4.0,4.0,4.0,4.0,0.0,4.0,2.0,4.0,4.0,4.0,4.0
110.0,0.0,4161.0256410256425,4166.666666666668,4181.0256410256425,4186.153846153848,4183.076923076925,4186.666666666668,4178.46153846154,4185.641025641027,4186.666666666668,4185.128205128207,4190.769230769232,4207.692307692309,4176.410256410258,4170.769230769232,859.0,2047.0,2048.0,0.0,0.0,4.0,4.0,4.0,4.0,0.0,4.0,4.0,4.0,4.0,0.0,4.0,2.0,4.0,4.0,4.0,4.0
111.0,0.0,4155.384615384617,4171.282051282053,4177.94871794872,4182.051282051283,4183.589743589745,4188.20512820513,4184.615384615386,4187.692307692309,4185.128205128207,4184.102564102565,4186.666666666668,4207.179487179489,4169.23076923077,4166.666666666668,845.0,2047.0,2048.0,0.0,0.0,4.0,4.0,4.0,4.0,0.0,4.0,4.0,4.0,4.0,0.0,4.0,2.0,4.0,4.0,4.0,4.0
112.0,0.0,4148.20512820513,4169.743589743592,4174.871794871797,4184.102564102565,4182.564102564104,4192.307692307694,4175.384615384617,4185.641025641027,4185.641025641027,4185.641025641027,4185.641025641027,4207.179487179489,4168.71794871795,4160.512820512822,847.0,2047.0,2048.0,0.0,0.0,4.0,4.0,4.0,4.0,0.0,4.0,4.0,4.0,4.0,0.0,4.0,2.0,4.0,4.0,4.0,4.0
113.0,0.0,4144.615384615386,4161.538461538463,4169.743589743592,4183.589743589745,4180.000000000002,4198.97435897436,4177.94871794872,4184.615384615386,4192.307692307694,4186.666666666668,4184.615384615386,4202.051282051283,4169.743589743592,4155.897435897437,180.0,2047.0,2048.0,0.0,0.0,4.0,4.0,4.0,4.0,0.0,4.0,4.0,4.0,4.0,0.0,4.0,2.0,4.0,4.0,4.0,4.0
114.0,0.0,4142.051282051283,4162.564102564104,4171.794871794873,4177.94871794872,4185.128205128207,4195.897435897437,4187.692307692309,4187.179487179489,4191.282051282053,4185.641025641027,4183.076923076925,4204.615384615386,4165.128205128207,4156.410256410258,859.0,2047.0,2048.0,0.0,0.0,4.0,4.0,4.0,4.0,0.0,4.0,4.0,4.0,4.0,0.0,4.0,2.0,4.0,4.0,4.0,4.0
115.0,0.0,4140.512820512822,4167.179487179489,4173.333333333335,4177.94871794872,4188.20512820513,4187.179487179489,4177.435897435899,4184.615384615386,4185.128205128207,4184.102564102565,4184.102564102565,4203.076923076925,4166.666666666668,4157.94871794872,845.0,2047.0,2048.0,0.0,0.0,4.0,4.0,4.0,4.0,0.0,4.0,4.0,4.0,4.0,0.0,4.0,2.0,4.0,4.0,4.0,4.0
116.0,0.0,4144.102564102565,4163.589743589745,4171.794871794873,4177.94871794872,4188.71794871795,4183.589743589745,4163.076923076925,4172.307692307694,4182.051282051283,4185.641025641027,4185.128205128207,4204.102564102565,4166.153846153848,4155.897435897437,847.0,2047.0,2048.0,0.0,0.0,4.0,4.0,4.0,4.0,0.0,4.0,4.0,4.0,4.0,0.0,4.0,2.0,4.0,4.0,4.0,4.0
117.0,0.0,4140.512820512822,4159.487179487181,4170.769230769232,4171.794871794873,4186.153846153848,4184.615384615386,4167.692307692309,4164.615384615386,4176.410256410258,4185.641025641027,4183.076923076925,4206.153846153848,4158.97435897436,4154.871794871797,180.0,2047.0,2048.0,0.0,0.0,4.0,4.0,4.0,4.0,0.0,4.0,4.0,4.0,4.0,0.0,4.0,2.0,4.0,4.0,4.0,4.0
118.0,0.0,4128.71794871795,4152.8205128205145,4164.102564102565,4167.179487179489,4184.615384615386,4186.153846153848,4172.307692307694,4168.20512820513,4174.3589743589755,4184.615384615386,4175.384615384617,4199.487179487181,4153.846153846155,4151.794871794873,859.0,2047.0,2048.0,0.0,0.0,4.0,4.0,4.0,4.0,0.0,4.0,4.0,4.0,4.0,0.0,4.0,2.0,4.0,4.0,4.0,4.0
119.0,0.0,4120.512820512822,4141.0256410256425,4157.94871794872,4162.051282051283,4186.666666666668,4186.153846153848,4165.128205128207,4170.256410256412,4180.512820512822,4186.153846153848,4163.076923076925,4199.487179487181,4146.153846153848,4135.384615384617,845.0,2047.0,2048.0,0.0,0.0,4.0,4.0,4.0,4.0,0.0,4.0,4.0,4.0,4.0,0.0,4.0,2.0,4.0,4.0,4.0,4.0
120.0,0.0,4114.871794871797,4135.384615384617,4150.256410256412,4151.794871794873,4184.102564102565,4185.641025641027,4163.589743589745,4169.23076923077,4183.589743589745,4187.179487179489,4157.94871794872,4195.384615384617,4135.384615384617,4124.102564102565,847.0,2047.0,2048.0,0.0,0.0,4.0,4.0,4.0,4.0,0.0,4.0,4.0,4.0,4.0,0.0,4.0,2.0,4.0,4.0,4.0,4.0
121.0,0.0,4113.846153846155,4139.487179487181,4152.8205128205145,4148.71794871795,4184.615384615386,4191.794871794873,4174.871794871797,4175.897435897437,4181.0256410256425,4185.128205128207,4163.589743589745,4195.897435897437,4138.97435897436,4131.794871794873,180.0,2047.0,2048.0,0.0,0.0,4.0,4.0,4.0,4.0,0.0,4.0,4.0,4.0,4.0,0.0,4.0,2.0,4.0,4.0,4.0,4.0
122.0,0.0,4123.076923076925,4143.076923076925,4164.102564102565,4158.46153846154,4185.641025641027,4200.512820512822,4186.153846153848,4184.615384615386,4182.564102564104,4184.102564102565,4171.794871794873,4205.641025641027,4154.3589743589755,4140.512820512822,859.0,2047.0,2048.0,0.0,0.0,4.0,4.0,4.0,4.0,0.0,4.0,4.0,4.0,4.0,0.0,4.0,2.0,4.0,4.0,4.0,4.0
123.0,0.0,4132.307692307694,4149.23076923077,4163.076923076925,4169.743589743592,4183.589743589745,4201.0256410256425,4187.179487179489,4186.153846153848,4185.641025641027,4185.128205128207,4177.94871794872,4203.589743589745,4161.538461538463,4144.102564102565,845.0,2047.0,2048.0,0.0,0.0,4.0,4.0,4.0,4.0,0.0,4.0,4.0,4.0,4.0,0.0,4.0,2.0,4.0,4.0,4.0,4.0
124.0,0.0,4133.333333333335,4155.897435897437,4163.076923076925,4172.307692307694,4186.153846153848,4196.923076923078,4184.102564102565,4185.641025641027,4186.153846153848,4186.153846153848,4183.076923076925,4205.128205128207,4163.076923076925,4152.8205128205145,847.0,2047.0,2048.0,0.0,0.0,4.0,4.0,4.0,4.0,0.0,4.0,4.0,4.0,4.0,0.0,4.0,2.0,4.0,4.0,4.0,4.0
