COUNTER,INTERPOLATED,AF3,F7,F3,FC5,T7,P7,O1,O2,P8,T8,FC6,F4,F8,AF4,RAW_CQ,GYROX,GYROY,MARKER,SYNC,CQ_AF3,CQ_F7,CQ_F3,CQ_FC5,CQ_T7,CQ_P7,CQ_O1,CQ_O2,CQ_P8,CQ_T8,CQ_FC6,CQ_F4,CQ_F8,CQ_AF4,CQ_CMS,CQ_DRL
84.0,0.0,4193.846153846155,4165.128205128207,4198.97435897436,4180.000000000002,4194.871794871797,4130.769230769232,4176.410256410258,4177.435897435899,4185.128205128207,4184.102564102565,3803.589743589745,4216.410256410258,4119.487179487181,4152.307692307694,861.0,2047.0,2048.0,0.0,0.0,0.0,0.0,0.0,0.0,0.0,0.0,0.0,0.0,0.0,0.0,0.0,0.0,0.0,0.0,0.0,0.0
85.0,0.0,4186.153846153848,4155.897435897437,4213.333333333335,4182.051282051283,4197.435897435899,4105.641025641027,4168.71794871795,4156.410256410258,4170.256410256412,4184.102564102565,3968.2051282051298,4204.102564102565,4127.179487179489,4137.435897435899,45.0,2047.0,2048.0,0.0,0.0,0.0,0.0,0.0,0.0,0.0,0.0,0.0,0.0,0.0,0.0,0.0,0.0,0.0,0.0,0.0,0.0
86.0,0.0,4188.20512820513,4152.8205128205145,4176.410256410258,4189.23076923077,4180.000000000002,4109.23076923077,4158.46153846154,4151.282051282053,4169.23076923077,4184.102564102565,4067.692307692309,4206.153846153848,4145.128205128207,4155.897435897437,855.0,2047.0,2048.0,0.0,0.0,0.0,0.0,0.0,0.0,0.0,0.0,0.0,0.0,0.0,0.0,0.0,0.0,0.0,0.0,0.0,0.0
87.0,0.0,4190.256410256412,4158.97435897436,4143.589743589745,4188.20512820513,4165.128205128207,4127.692307692309,4160.512820512822,4168.71794871795,4184.615384615386,4184.102564102565,4030.256410256412,4213.846153846155,4140.512820512822,4175.897435897437,843.0,2047.0,2048.0,0.0,0.0,0.0,0.0,0.0,0.0,0.0,0.0,0.0,0.0,0.0,0.0,0.0,0.0,0.0,0.0,0.0,0.0
88.0,0.0,4186.666666666668,4166.666666666668,4168.20512820513,4184.102564102565,4184.102564102565,4137.94871794872,4170.769230769232,4176.410256410258,4189.23076923077,4184.102564102565,4085.641025641027,4210.769230769232,4099.487179487181,4166.153846153848,861.0,2047.0,2048.0,0.0,0.0,0.0,0.0,0.0,0.0,0.0,0.0,0.0,0.0,0.0,0.0,0.0,0.0,0.0,0.0,0.0,0.0
89.0,0.0,4184.615384615386,4164.615384615386,4194.871794871797,4183.076923076925,4197.94871794872,4139.487179487181,4170.769230769232,4166.153846153848,4177.435897435899,4184.102564102565,4188.71794871795,4206.666666666668,4089.230769230771,4143.589743589745,45.0,2047.0,2048.0,0.0,0.0,0.0,0.0,0.0,0.0,0.0,0.0,0.0,0.0,0.0,0.0,0.0,0.0,0.0,0.0,0.0,0.0
90.0,0.0,4187.692307692309,4161.0256410256425,4184.615384615386,4175.897435897437,4184.615384615386,4137.435897435899,4162.564102564104,4164.102564102565,4167.692307692309,4184.102564102565,4132.307692307694,4211.794871794873,4087.692307692309,4158.97435897436,855.0,2047.0,2048.0,0.0,0.0,0.0,0.0,0.0,0.0,0.0,0.0,0.0,0.0,0.0,0.0,0.0,0.0,0.0,0.0,0.0,0.0
91.0,0.0,4185.128205128207,4157.94871794872,4176.410256410258,4170.256410256412,4181.538461538463,4143.076923076925,4162.051282051283,4172.8205128205145,4173.333333333335,4184.102564102565,4070.256410256412,4221.0256410256425,4064.615384615386,4177.435897435899,843.0,2047.0,2048.0,0.0,0.0,0.0,0.0,0.0,0.0,0.0,0.0,0.0,0.0,0.0,0.0,0.0,0.0,0.0,0.0,0.0,0.0
92.0,0.0,4175.897435897437,4148.20512820513,4169.23076923077,4168.71794871795,4181.538461538463,4151.794871794873,4163.589743589745,4168.71794871795,4182.564102564104,4184.102564102565,4191.282051282053,4208.71794871795,4122.051282051283,4125.128205128207,861.0,2047.0,2048.0,0.0,0.0,0.0,0.0,0.0,0.0,0.0,0.0,0.0,0.0,0.0,0.0,0.0,0.0,0.0,0.0,0.0,0.0
93.0,0.0,4176.923076923078,4145.641025641027,4169.23076923077,4170.256410256412,4186.153846153848,4154.871794871797,4169.23076923077,4165.641025641027,4182.564102564104,4184.102564102565,4290.256410256412,4198.46153846154,4190.769230769232,4094.8717948717963,45.0,2047.0,2048.0,0.0,0.0,0.0,0.0,0.0,0.0,0.0,0.0,0.0,0.0,0.0,0.0,0.0,0.0,0.0,0.0,0.0,0.0
94.0,0.0,4185.641025641027,4158.46153846154,4184.615384615386,4178.46153846154,4190.769230769232,4156.410256410258,4175.897435897437,4171.794871794873,4183.076923076925,4184.615384615386,4281.0256410256425,4208.20512820513,4190.256410256412,4129.23076923077,855.0,2047.0,2048.0,0.0,0.0,0.0,0.0,0.0,0.0,0.0,0.0,0.0,0.0,0.0,0.0,0.0,0.0,0.0,0.0,0.0,0.0
95.0,0.0,4186.153846153848,4169.743589743592,4187.179487179489,4186.666666666668,4181.538461538463,4157.435897435899,4173.846153846155,4174.3589743589755,4187.692307692309,4184.102564102565,4272.8205128205145,4211.282051282053,4213.333333333335,4148.20512820513,843.0,2047.0,2048.0,0.0,0.0,0.0,0.0,0.0,0.0,0.0,0.0,0.0,0.0,0.0,0.0,0.0,0.0,0.0,0.0,0.0,0.0
96.0,0.0,4185.128205128207,4170.769230769232,4182.564102564104,4190.769230769232,4181.538461538463,4162.051282051283,4175.897435897437,4176.923076923078,4188.20512820513,4184.102564102565,4298.97435897436,4210.256410256412,4263.076923076925,4145.128205128207,861.0,2047.0,2048.0,0.0,0.0,0.0,0.0,0.0,0.0,0.0,0.0,0.0,0.0,0.0,0.0,0.0,0.0,0.0,0.0,0.0,0.0
97.0,0.0,4188.71794871795,4175.897435897437,4186.666666666668,4200.000000000002,4182.051282051283,4171.282051282053,4184.615384615386,4186.153846153848,4187.692307692309,4185.128205128207,4333.333333333335,4209.743589743592,4278.97435897436,4153.846153846155,45.0,2047.0,2048.0,0.0,0.0,0.0,0.0,0.0,0.0,0.0,0.0,0.0,0.0,0.0,0.0,0.0,0.0,0.0,0.0,0.0,0.0
98.0,0.0,4187.179487179489,4176.923076923078,4191.282051282053,4198.97435897436,4183.076923076925,4172.8205128205145,4183.076923076925,4185.641025641027,4187.692307692309,4186.153846153848,4335.384615384617,4210.769230769232,4271.794871794873,4152.307692307694,855.0,2047.0,2048.0,0.0,0.0,0.0,0.0,0.0,0.0,0.0,0.0,0.0,0.0,0.0,0.0,0.0,0.0,0.0,0.0,0.0,0.0
99.0,0.0,4183.076923076925,4170.256410256412,4187.692307692309,4185.641025641027,4187.179487179489,4168.71794871795,4172.8205128205145,4172.8205128205145,4185.128205128207,4186.153846153848,4330.769230769232,4209.743589743592,4266.666666666668,4127.179487179489,843.0,2047.0,2048.0,0.0,0.0,0.0,0.0,0.0,0.0,0.0,0.0,0.0,0.0,0.0,0.0,0.0,0.0,0.0,0.0,0.0,0.0
100.0,0.0,4185.128205128207,4176.410256410258,4183.589743589745,4191.794871794873,4183.076923076925,4169.743589743592,4172.8205128205145,4175.384615384617,4186.666666666668,4186.153846153848,4352.8205128205145,4205.641025641027,4264.615384615386,4123.589743589745,861.0,2047.0,2048.0,0.0,0.0,0.0,0.0,0.0,0.0,0.0,0.0,0.0,0.0,0.0,0.0,0.0,0.0,0.0,0.0,0.0,0.0
101.0,0.0,4184.615384615386,4184.615384615386,4186.153846153848,4201.0256410256425,4183.076923076925,4171.794871794873,4175.384615384617,4181.0256410256425,4187.179487179489,4186.153846153848,4378.46153846154,4210.256410256412,4258.46153846154,4137.435897435899,45.0,2047.0,2048.0,0.0,0.0,0.0,0.0,0.0,0.0,0.0,0.0,0.0,0.0,0.0,0.0,0.0,0.0,0.0,0.0,0.0,0.0
102.0,0.0,4178.97435897436,4174.3589743589755,4184.615384615386,4188.20512820513,4180.512820512822,4168.71794871795,4170.769230769232,4173.333333333335,4183.589743589745,4186.153846153848,4378.46153846154,4212.307692307694,4253.846153846155,4134.3589743589755,855.0,2047.0,2048.0,0.0,0.0,0.0,0.0,0.0,0.0,0.0,0.0,0.0,0.0,0.0,0.0,0.0,0.0,0.0,0.0,0.0,0.0
103.0,0.0,4178.97435897436,4165.641025641027,4181.538461538463,4182.564102564104,4181.538461538463,4166.666666666668,4167.692307692309,4167.692307692309,4181.538461538463,4186.153846153848,4366.153846153848,4208.71794871795,4251.282051282053,4129.23076923077,843.0,2047.0,2048.0,0.0,0.0,0.0,0.0,0.0,0.0,0.0,0.0,0.0,0.0,0.0,0.0,0.0,0.0,0.0,0.0,0.0,0.0
104.0,0.0,4185.641025641027,4175.897435897437,4188.71794871795,4196.923076923078,4187.179487179489,4167.692307692309,4165.641025641027,4167.692307692309,4180.512820512822,4186.153846153848,4379.487179487181,4210.769230769232,4253.846153846155,4142.564102564104,861.0,2047.0,2048.0,0.0,0.0,0.0,0.0,0.0,0.0,0.0,0.0,0.0,0.0,0.0,0.0,0.0,0.0,0.0,0.0,0.0,0.0
105.0,0.0,4190.769230769232,4186.153846153848,4193.846153846155,4206.153846153848,4183.076923076925,4170.769230769232,4172.307692307694,4175.897435897437,4186.666666666668,4186.153846153848,4388.20512820513,4214.3589743589755,4247.692307692309,4159.487179487181,45.0,2047.0,2048.0,0.0,0.0,0.0,0.0,0.0,0.0,0.0,0.0,0.0,0.0,0.0,0.0,0.0,0.0,0.0,0.0,0.0,0.0
106.0,0.0,4187.179487179489,4185.128205128207,4191.282051282053,4201.0256410256425,4185.128205128207,4173.846153846155,4181.0256410256425,4185.128205128207,4190.256410256412,4186.153846153848,4374.871794871797,4215.897435897437,4227.179487179489,4155.384615384617,855.0,2047.0,2048.0,0.0,0.0,0.0,0.0,0.0,0.0,0.0,0.0,0.0,0.0,0.0,0.0,0.0,0.0,0.0,0.0,0.0,0.0
107.0,0.0,4186.153846153848,4185.128205128207,4190.256410256412,4201.538461538463,4185.128205128207,4181.0256410256425,4184.615384615386,4187.179487179489,4186.153846153848,4186.153846153848,4367.692307692309,4209.23076923077,4205.641025641027,4153.846153846155,843.0,2047.0,2048.0,0.0,0.0,0.0,0.0,0.0,0.0,0.0,0.0,0.0,0.0,0.0,0.0,0.0,0.0,0.0,0.0,0.0,0.0
108.0,0.0,4191.794871794873,4188.20512820513,4194.871794871797,4212.307692307694,4183.589743589745,4189.743589743592,4194.3589743589755,4190.769230769232,4193.846153846155,4186.153846153848,4372.8205128205145,4209.743589743592,4178.97435897436,4165.128205128207,861.0,2047.0,2048.0,0.0,0.0,0.0,0.0,0.0,0.0,0.0,0.0,0.0,0.0,0.0,0.0,0.0,0.0,0.0,0.0,0.0,0.0
109.0,0.0,4192.307692307694,4188.71794871795,4197.435897435899,4220.000000000002,4186.153846153848,4188.20512820513,4204.102564102565,4196.410256410258,4200.000000000002,4186.153846153848,4367.692307692309,4216.923076923078,4136.923076923078,4168.20512820513,45.0,2047.0,2048.0,0.0,0.0,0.0,0.0,0.0,0.0,0.0,0.0,0.0,0.0,0.0,0.0,0.0,0.0,0.0,0.0,0.0,0.0
110.0,0.0,4191.282051282053,4187.692307692309,4191.794871794873,4217.94871794872,4183.076923076925,4181.538461538463,4196.410256410258,4191.282051282053,4194.871794871797,4186.153846153848,4351.794871794873,4213.333333333335,4101.0256410256425,4165.641025641027,855.0,2047.0,2048.0,0.0,0.0,0.0,0.0,0.0,0.0,0.0,0.0,0.0,0.0,0.0,0.0,0.0,0.0,0.0,0.0,0.0,0.0
111.0,0.0,4194.3589743589755,4187.692307692309,4193.333333333335,4217.435897435899,4187.179487179489,4184.615384615386,4193.333333333335,4187.692307692309,4194.3589743589755,4186.153846153848,4338.97435897436,4214.3589743589755,4090.256410256412,4169.23076923077,843.0,2047.0,2048.0,0.0,0.0,0.0,0.0,0.0,0.0,0.0,0.0,0.0,0.0,0.0,0.0,0.0,0.0,0.0,0.0,0.0,0.0
112.0,0.0,4191.794871794873,4185.641025641027,4194.871794871797,4217.94871794872,4186.666666666668,4183.076923076925,4198.97435897436,4189.743589743592,4194.3589743589755,4186.153846153848,4328.71794871795,4216.923076923078,4091.2820512820526,4170.256410256412,861.0,2047.0,2048.0,0.0,0.0,0.0,0.0,0.0,0.0,0.0,0.0,0.0,0.0,0.0,0.0,0.0,0.0,0.0,0.0,0.0,0.0
113.0,0.0,4183.076923076925,4180.512820512822,4187.692307692309,4213.333333333335,4181.538461538463,4171.282051282053,4191.282051282053,4186.153846153848,4186.666666666668,4186.153846153848,4309.743589743592,4212.8205128205145,4088.71794871795,4164.615384615386,45.0,2047.0,2048.0,0.0,0.0,0.0,0.0,0.0,0.0,0.0,0.0,0.0,0.0,0.0,0.0,0.0,0.0,0.0,0.0,0.0,0.0
114.0,0.0,4189.23076923077,4186.153846153848,4193.333333333335,4215.384615384617,4185.128205128207,4171.282051282053,4188.20512820513,4191.282051282053,4191.282051282053,4186.153846153848,4296.410256410258,4213.333333333335,4095.8974358974374,4165.641025641027,855.0,2047.0,2048.0,0.0,0.0,0.0,0.0,0.0,0.0,0.0,0.0,0.0,0.0,0.0,0.0,0.0,0.0,0.0,0.0,0.0,0.0
115.0,0.0,4201.538461538463,4195.897435897437,4202.051282051283,4222.564102564104,4184.615384615386,4178.97435897436,4200.000000000002,4205.128205128207,4203.589743589745,4186.153846153848,4295.384615384617,4214.871794871797,4115.897435897437,4170.256410256412,843.0,2047.0,2048.0,0.0,0.0,0.0,0.0,0.0,0.0,0.0,0.0,0.0,0.0,0.0,0.0,0.0,0.0,0.0,0.0,0.0,0.0
116.0,0.0,4196.410256410258,4193.333333333335,4200.512820512822,4219.487179487181,4188.20512820513,4175.384615384617,4197.94871794872,4201.538461538463,4197.435897435899,4184.615384615386,4285.641025641027,4216.410256410258,4128.20512820513,4169.743589743592,861.0,2047.0,2048.0,0.0,0.0,0.0,0.0,0.0,0.0,0.0,0.0,0.0,0.0,0.0,0.0,0.0,0.0,0.0,0.0,0.0,0.0
117.0,0.0,4185.641025641027,4181.0256410256425,4198.97435897436,4212.8205128205145,4189.743589743592,4166.153846153848,4184.615384615386,4189.23076923077,4187.692307692309,4184.102564102565,4253.846153846155,4215.384615384617,4136.923076923078,4170.256410256412,45.0,2047.0,2048.0,0.0,0.0,0.0,0.0,0.0,0.0,0.0,0.0,0.0,0.0,0.0,0.0,0.0,0.0,0.0,0.0,0.0,0.0
118.0,0.0,4182.564102564104,4172.8205128205145,4184.615384615386,4208.20512820513,4183.076923076925,4158.97435897436,4182.051282051283,4188.71794871795,4191.282051282053,4184.102564102565,4225.641025641027,4212.8205128205145,4152.8205128205145,4165.641025641027,855.0,2047.0,2048.0,0.0,0.0,0.0,0.0,0.0,0.0,0.0,0.0,0.0,0.0,0.0,0.0,0.0,0.0,0.0,0.0,0.0,0.0
119.0,0.0,4184.615384615386,4168.20512820513,4163.076923076925,4206.153846153848,4177.94871794872,4153.846153846155,4183.589743589745,4196.923076923078,4196.410256410258,4184.102564102565,4230.256410256412,4217.435897435899,4170.769230769232,4152.8205128205145,843.0,2047.0,2048.0,0.0,0.0,0.0,0.0,0.0,0.0,0.0,0.0,0.0,0.0,0.0,0.0,0.0,0.0,0.0,0.0,0.0,0.0
120.0,0.0,4185.641025641027,4168.20512820513,4168.71794871795,4212.307692307694,4174.3589743589755,4154.3589743589755,4182.564102564104,4201.538461538463,4196.410256410258,4184.102564102565,4165.641025641027,4215.384615384617,4192.8205128205145,4150.256410256412,861.0,2047.0,2048.0,0.0,0.0,0.0,0.0,0.0,0.0,0.0,0.0,0.0,0.0,0.0,0.0,0.0,0.0,0.0,0.0,0.0,0.0
121.0,0.0,4186.666666666668,4180.000000000002,4204.102564102565,4224.615384615386,4190.769230769232,4156.410256410258,4192.307692307694,4200.512820512822,4194.871794871797,4184.102564102565,3982.564102564104,4211.794871794873,4210.769230769232,4158.46153846154,45.0,2047.0,2048.0,0.0,0.0,0.0,0.0,0.0,0.0,0.0,0.0,0.0,0.0,0.0,0.0,0.0,0.0,0.0,0.0,0.0,0.0
122.0,0.0,4188.20512820513,4185.641025641027,4223.076923076925,4230.769230769232,4200.512820512822,4151.282051282053,4198.97435897436,4200.000000000002,4199.487179487181,4184.102564102565,3849.230769230771,4212.8205128205145,4221.0256410256425,4160.512820512822,855.0,2047.0,2048.0,0.0,0.0,0.0,0.0,0.0,0.0,0.0,0.0,0.0,0.0,0.0,0.0,0.0,0.0,0.0,0.0,0.0,0.0
123.0,0.0,4187.692307692309,4173.333333333335,4201.0256410256425,4228.20512820513,4184.102564102565,4149.743589743592,4193.333333333335,4202.564102564104,4200.512820512822,4184.102564102565,3825.641025641027,4211.794871794873,4233.333333333335,4154.871794871797,843.0,2047.0,2048.0,0.0,0.0,0.0,0.0,0.0,0.0,0.0,0.0,0.0,0.0,0.0,0.0,0.0,0.0,0.0,0.0,0.0,0.0
124.0,0.0,4187.692307692309,4167.179487179489,4180.000000000002,4222.564102564104,4177.94871794872,4154.871794871797,4188.71794871795,4201.538461538463,4196.410256410258,4184.102564102565,3794.8717948717963,4214.871794871797,4257.94871794872,4151.794871794873,861.0,2047.0,2048.0,0.0,0.0,0.0,0.0,0.0,0.0,0.0,0.0,0.0,0.0,0.0,0.0,0.0,0.0,0.0,0.0,0.0,0.0
125.0,0.0,4188.20512820513,4172.8205128205145,4179.487179487181,4220.000000000002,4180.000000000002,4150.769230769232,4190.769230769232,4197.94871794872,4199.487179487181,4184.102564102565,3752.3076923076937,4213.846153846155,4280.512820512822,4154.3589743589755,45.0,2047.0,2048.0,0.0,0.0,0.0,0.0,0.0,0.0,0.0,0.0,0.0,0.0,0.0,0.0,0.0,0.0,0.0,0.0,0.0,0.0
126.0,0.0,4181.0256410256425,4158.97435897436,4189.743589743592,4217.435897435899,4186.666666666668,4139.487179487181,4184.615384615386,4192.8205128205145,4192.8205128205145,4184.102564102565,3736.9230769230785,4212.307692307694,4277.435897435899,4154.3589743589755,855.0,2047.0,2048.0,0.0,0.0,0.0,0.0,0.0,0.0,0.0,0.0,0.0,0.0,0.0,0.0,0.0,0.0,0.0,0.0,0.0,0.0
127.0,0.0,4173.846153846155,4132.307692307694,4197.435897435899,4214.871794871797,4191.282051282053,4134.871794871797,4176.923076923078,4182.564102564104,4173.846153846155,4184.102564102565,3721.0256410256425,4213.333333333335,4277.435897435899,4148.20512820513,843.0,2047.0,2048.0,0.0,0.0,0.0,0.0,0.0,0.0,0.0,0.0,0.0,0.0,0.0,0.0,0.0,0.0,0.0,0.0,0.0,0.0
128.0,0.0,4177.435897435899,4130.256410256412,4190.769230769232,4212.307692307694,4186.153846153848,4137.94871794872,4180.000000000002,4175.384615384617,4171.282051282053,4184.102564102565,3712.3076923076937,4207.692307692309,4298.46153846154,4139.487179487181,861.0,2047.0,2048.0,0.0,0.0,0.0,0.0,4.0,0.0,0.0,0.0,0.0,0.0,0.0,0.0,0.0,0.0,0.0,0.0,4.0,4.0
0.0,0.0,4187.179487179489,4147.179487179489,4183.076923076925,4215.897435897437,4185.128205128207,4145.128205128207,4183.589743589745,4186.666666666668,4184.615384615386,4184.102564102565,3695.384615384617,4213.846153846155,4301.538461538463,4144.102564102565,664.0,2047.0,2048.0,0.0,0.0,0.0,0.0,4.0,0.0,0.0,0.0,0.0,0.0,0.0,0.0,0.0,0.0,0.0,0.0,4.0,4.0
1.0,0.0,4198.46153846154,4157.94871794872,4194.3589743589755,4228.20512820513,4183.076923076925,4149.743589743592,4185.641025641027,4206.153846153848,4188.71794871795,4184.102564102565,3668.2051282051298,4222.051282051283,4294.3589743589755,4178.97435897436,827.0,2047.0,2048.0,0.0,0.0,0.0,0.0,4.0,4.0,0.0,0.0,0.0,0.0,0.0,0.0,0.0,0.0,0.0,0.0,4.0,4.0
2.0,0.0,4205.128205128207,4154.3589743589755,4211.794871794873,4231.794871794873,4187.692307692309,4150.256410256412,4190.256410256412,4204.615384615386,4188.71794871795,4184.102564102565,3688.71794871795,4217.435897435899,4309.743589743592,4191.282051282053,797.0,2047.0,2048.0,0.0,0.0,4.0,0.0,4.0,4.0,0.0,0.0,0.0,0.0,0.0,0.0,0.0,0.0,0.0,0.0,4.0,4.0
3.0,0.0,4198.97435897436,4153.333333333335,4204.102564102565,4230.256410256412,4188.20512820513,4152.8205128205145,4187.692307692309,4188.20512820513,4189.23076923077,4184.102564102565,3715.8974358974374,4208.20512820513,4346.153846153848,4153.846153846155,774.0,2047.0,2048.0,0.0,0.0,4.0,4.0,4.0,4.0,0.0,0.0,0.0,0.0,0.0,0.0,0.0,0.0,0.0,0.0,4.0,4.0
4.0,0.0,4193.333333333335,4164.102564102565,4190.769230769232,4233.846153846155,4177.94871794872,4149.743589743592,4182.564102564104,4190.256410256412,4186.153846153848,4184.102564102565,3688.2051282051298,4209.743589743592,4347.179487179488,4152.307692307694,0.0,2047.0,2048.0,0.0,0.0,4.0,4.0,4.0,4.0,0.0,0.0,0.0,0.0,0.0,0.0,0.0,0.0,0.0,0.0,4.0,4.0
5.0,0.0,4201.538461538463,4157.435897435899,4209.743589743592,4227.179487179489,4186.666666666668,4144.102564102565,4189.743589743592,4204.102564102565,4192.8205128205145,4184.102564102565,3663.0769230769247,4221.538461538463,4304.615384615386,4192.8205128205145,764.0,2047.0,2048.0,0.0,0.0,4.0,4.0,4.0,4.0,0.0,4.0,0.0,0.0,0.0,0.0,0.0,0.0,0.0,0.0,4.0,4.0
6.0,0.0,4207.692307692309,4149.743589743592,4215.897435897437,4215.897435897437,4191.282051282053,4154.3589743589755,4196.923076923078,4204.615384615386,4198.46153846154,4184.102564102565,3678.9743589743607,4216.410256410258,4303.589743589745,4190.256410256412,797.0,2047.0,2048.0,0.0,0.0,4.0,4.0,4.0,4.0,0.0,4.0,4.0,0.0,0.0,0.0,0.0,0.0,0.0,0.0,4.0,4.0
7.0,0.0,4195.384615384617,4165.641025641027,4186.153846153848,4217.94871794872,4183.076923076925,4167.692307692309,4189.743589743592,4198.46153846154,4189.743589743592,4184.102564102565,3683.589743589745,4210.256410256412,4331.794871794873,4159.487179487181,781.0,2047.0,2048.0,0.0,0.0,4.0,4.0,4.0,4.0,0.0,4.0,4.0,4.0,0.0,0.0,0.0,0.0,0.0,0.0,4.0,4.0
8.0,0.0,4184.615384615386,4166.153846153848,4171.282051282053,4215.384615384617,4179.487179487181,4163.076923076925,4180.512820512822,4200.512820512822,4183.076923076925,4184.102564102565,3701.0256410256425,4218.46153846154,4296.923076923078,4163.589743589745,618.0,2047.0,2048.0,0.0,0.0,4.0,4.0,4.0,4.0,0.0,4.0,4.0,4.0,4.0,0.0,0.0,0.0,0.0,0.0,4.0,4.0
9.0,0.0,4184.102564102565,4148.20512820513,4181.0256410256425,4201.538461538463,4182.051282051283,4165.641025641027,4191.794871794873,4203.589743589745,4188.71794871795,4184.102564102565,3742.0512820512836,4215.384615384617,4241.538461538463,4175.384615384617,0.0,2047.0,2048.0,0.0,0.0,4.0,4.0,4.0,4.0,0.0,4.0,4.0,4.0,4.0,0.0,0.0,0.0,0.0,0.0,4.0,4.0
10.0,0.0,4185.641025641027,4156.410256410258,4205.128205128207,4196.410256410258,4195.897435897437,4182.564102564104,4217.435897435899,4206.153846153848,4197.435897435899,4184.102564102565,3718.9743589743607,4215.897435897437,4208.71794871795,4177.94871794872,859.0,2047.0,2048.0,0.0,0.0,4.0,4.0,4.0,4.0,0.0,4.0,4.0,4.0,4.0,0.0,0.0,0.0,4.0,0.0,4.0,4.0
11.0,0.0,4188.71794871795,4172.8205128205145,4209.743589743592,4204.102564102565,4189.23076923077,4191.794871794873,4215.897435897437,4206.666666666668,4203.076923076925,4184.102564102565,3788.2051282051298,4215.384615384617,4208.20512820513,4161.0256410256425,841.0,2047.0,2048.0,0.0,0.0,4.0,4.0,4.0,4.0,0.0,4.0,4.0,4.0,4.0,0.0,0.0,0.0,4.0,4.0,4.0,4.0
12.0,0.0,4195.384615384617,4174.3589743589755,4173.846153846155,4210.769230769232,4169.23076923077,4205.641025641027,4188.20512820513,4194.3589743589755,4203.589743589745,4184.102564102565,3986.6666666666683,4205.128205128207,4224.102564102565,4137.435897435899,854.0,2047.0,2048.0,0.0,0.0,4.0,4.0,4.0,4.0,0.0,4.0,4.0,4.0,4.0,0.0,4.0,0.0,4.0,4.0,4.0,4.0
13.0,0.0,4206.153846153848,4183.076923076925,4165.128205128207,4207.179487179489,4175.384615384617,4221.538461538463,4176.410256410258,4192.8205128205145,4195.384615384617,4184.102564102565,4000.0000000000014,4221.538461538463,4123.589743589745,4210.256410256412,45.0,2047.0,2048.0,0.0,0.0,4.0,4.0,4.0,4.0,0.0,4.0,4.0,4.0,4.0,0.0,4.0,1.0,4.0,4.0,4.0,4.0
14.0,0.0,4200.512820512822,4187.692307692309,4201.538461538463,4198.97435897436,4192.8205128205145,4217.435897435899,4193.846153846155,4205.641025641027,4189.23076923077,4184.102564102565,3969.230769230771,4234.3589743589755,4014.358974358976,4250.769230769232,859.0,2047.0,2048.0,0.0,0.0,4.0,4.0,4.0,4.0,0.0,4.0,4.0,4.0,4.0,0.0,4.0,1.0,4.0,4.0,4.0,4.0
15.0,0.0,4180.512820512822,4182.051282051283,4218.46153846154,4198.97435897436,4203.076923076925,4204.102564102565,4203.589743589745,4193.846153846155,4184.102564102565,4184.102564102565,4144.102564102565,4214.871794871797,4083.589743589745,4155.384615384617,841.0,2047.0,2048.0,0.0,0.0,4.0,4.0,4.0,4.0,0.0,4.0,4.0,4.0,4.0,0.0,4.0,1.0,4.0,4.0,4.0,4.0
16.0,0.0,4182.051282051283,4183.589743589745,4192.8205128205145,4202.051282051283,4189.23076923077,4196.923076923078,4185.128205128207,4168.20512820513,4181.538461538463,4184.615384615386,4276.410256410258,4203.589743589745,4135.384615384617,4130.769230769232,0.0,2047.0,2048.0,0.0,0.0,4.0,4.0,4.0,4.0,0.0,4.0,4.0,4.0,4.0,0.0,4.0,1.0,4.0,4.0,4.0,4.0
17.0,0.0,4195.897435897437,4187.179487179489,4160.000000000002,4197.94871794872,4173.846153846155,4195.897435897437,4168.71794871795,4174.3589743589755,4194.3589743589755,4185.641025641027,4292.307692307694,4208.20512820513,4109.743589743592,4170.256410256412,0.0,2047.0,2048.0,0.0,0.0,4.0,4.0,4.0,4.0,0.0,4.0,4.0,4.0,4.0,0.0,4.0,1.0,4.0,4.0,4.0,4.0
18.0,0.0,4193.333333333335,4186.153846153848,4162.051282051283,4198.46153846154,4181.538461538463,4202.564102564104,4173.333333333335,4196.410256410258,4199.487179487181,4186.666666666668,4311.794871794873,4208.20512820513,4153.333333333335,4144.102564102565,0.0,2047.0,2048.0,0.0,0.0,4.0,4.0,4.0,4.0,0.0,4.0,4.0,4.0,4.0,0.0,4.0,1.0,4.0,4.0,4.0,4.0
19.0,0.0,4184.102564102565,4183.076923076925,4192.8205128205145,4200.000000000002,4189.743589743592,4211.282051282053,4189.23076923077,4199.487179487181,4194.871794871797,4186.666666666668,4306.666666666668,4210.256410256412,4163.589743589745,4157.94871794872,0.0,2047.0,2048.0,0.0,0.0,4.0,4.0,4.0,4.0,0.0,4.0,4.0,4.0,4.0,0.0,4.0,1.0,4.0,4.0,4.0,4.0
20.0,0.0,4185.128205128207,4182.564102564104,4203.589743589745,4197.94871794872,4191.794871794873,4215.897435897437,4197.435897435899,4199.487179487181,4194.3589743589755,4186.153846153848,4307.179487179489,4221.0256410256425,4132.307692307694,4202.564102564104,0.0,2047.0,2048.0,0.0,0.0,4.0,4.0,4.0,4.0,0.0,4.0,4.0,4.0,4.0,0.0,4.0,1.0,4.0,4.0,4.0,4.0
21.0,0.0,4186.153846153848,4185.641025641027,4178.46153846154,4196.923076923078,4183.589743589745,4218.46153846154,4191.282051282053,4201.0256410256425,4193.846153846155,4185.128205128207,4375.897435897437,4214.3589743589755,4203.589743589745,4154.3589743589755,0.0,2047.0,2048.0,0.0,0.0,4.0,4.0,4.0,4.0,0.0,4.0,4.0,4.0,4.0,0.0,4.0,1.0,4.0,4.0,4.0,4.0
22.0,0.0,4184.615384615386,4187.179487179489,4164.615384615386,4196.923076923078,4179.487179487181,4217.435897435899,4179.487179487181,4190.256410256412,4188.71794871795,4184.615384615386,4437.435897435899,4202.564102564104,4266.666666666668,4112.8205128205145,0.0,2047.0,2048.0,0.0,0.0,4.0,4.0,4.0,4.0,0.0,4.0,4.0,4.0,4.0,0.0,4.0,1.0,4.0,4.0,4.0,4.0
23.0,0.0,4184.615384615386,4185.641025641027,4178.46153846154,4197.435897435899,4187.179487179489,4215.384615384617,4176.410256410258,4179.487179487181,4190.769230769232,4185.641025641027,4490.769230769232,4207.179487179489,4275.384615384617,4140.000000000002,0.0,2047.0,2048.0,0.0,0.0,4.0,4.0,4.0,4.0,0.0,4.0,4.0,4.0,4.0,0.0,4.0,1.0,4.0,4.0,4.0,4.0
24.0,0.0,4185.641025641027,4184.615384615386,4185.128205128207,4198.97435897436,4184.102564102565,4215.384615384617,4183.589743589745,4188.71794871795,4200.000000000002,4186.666666666668,4459.487179487181,4210.769230769232,4319.487179487181,4164.615384615386,0.0,2047.0,2048.0,0.0,0.0,4.0,4.0,4.0,4.0,0.0,4.0,4.0,4.0,4.0,0.0,4.0,1.0,4.0,4.0,4.0,4.0
25.0,0.0,4185.128205128207,4182.564102564104,4182.051282051283,4194.3589743589755,4183.076923076925,4213.846153846155,4185.641025641027,4198.97435897436,4198.46153846154,4186.666666666668,4370.769230769232,4214.3589743589755,4351.794871794873,4169.743589743592,0.0,2047.0,2048.0,0.0,0.0,4.0,4.0,4.0,4.0,0.0,4.0,4.0,4.0,4.0,0.0,4.0,1.0,4.0,4.0,4.0,4.0
26.0,0.0,4183.589743589745,4181.538461538463,4177.94871794872,4191.282051282053,4183.076923076925,4216.410256410258,4185.128205128207,4187.179487179489,4196.923076923078,4186.153846153848,4473.333333333335,4206.666666666668,4378.46153846154,4138.97435897436,0.0,2047.0,2048.0,0.0,0.0,4.0,4.0,4.0,4.0,0.0,4.0,4.0,4.0,4.0,0.0,4.0,1.0,4.0,4.0,4.0,4.0
27.0,0.0,4183.589743589745,4183.076923076925,4173.333333333335,4197.435897435899,4181.0256410256425,4213.846153846155,4183.589743589745,4179.487179487181,4201.538461538463,4187.179487179489,4576.923076923078,4200.512820512822,4395.384615384617,4127.692307692309,0.0,2047.0,2048.0,0.0,0.0,4.0,4.0,4.0,4.0,0.0,4.0,4.0,4.0,4.0,0.0,4.0,1.0,4.0,4.0,4.0,4.0
28.0,0.0,4187.692307692309,4182.564102564104,4176.923076923078,4201.0256410256425,4184.102564102565,4207.179487179489,4181.0256410256425,4188.71794871795,4197.435897435899,4187.179487179489,4490.769230769232,4214.3589743589755,4361.538461538463,4168.20512820513,0.0,2047.0,2048.0,0.0,0.0,4.0,4.0,4.0,4.0,0.0,4.0,4.0,4.0,4.0,0.0,4.0,1.0,4.0,4.0,4.0,4.0
29.0,0.0,4197.94871794872,4184.102564102565,4183.076923076925,4201.538461538463,4180.512820512822,4213.333333333335,4184.615384615386,4192.8205128205145,4192.307692307694,4187.179487179489,4467.179487179488,4212.307692307694,4360.000000000002,4174.3589743589755,0.0,2047.0,2048.0,0.0,0.0,4.0,4.0,4.0,4.0,0.0,4.0,4.0,4.0,4.0,0.0,4.0,1.0,4.0,4.0,4.0,4.0
30.0,0.0,4198.46153846154,4186.153846153848,4188.71794871795,4203.076923076925,4186.153846153848,4218.46153846154,4185.641025641027,4186.153846153848,4191.282051282053,4186.666666666668,4536.410256410258,4203.589743589745,4387.179487179488,4148.71794871795,0.0,2047.0,2048.0,0.0,0.0,4.0,4.0,4.0,4.0,0.0,4.0,4.0,4.0,4.0,0.0,4.0,1.0,4.0,4.0,4.0,4.0
31.0,0.0,4190.256410256412,4182.564102564104,4189.23076923077,4201.0256410256425,4189.23076923077,4209.743589743592,4178.97435897436,4182.564102564104,4189.23076923077,4187.179487179489,4529.743589743592,4210.256410256412,4369.743589743592,4155.384615384617,0.0,2047.0,2048.0,0.0,0.0,4.0,4.0,4.0,4.0,0.0,4.0,4.0,4.0,4.0,0.0,4.0,1.0,4.0,4.0,4.0,4.0
32.0,0.0,4191.282051282053,4181.538461538463,4186.153846153848,4199.487179487181,4180.512820512822,4204.615384615386,4178.46153846154,4189.743589743592,4190.256410256412,4187.179487179489,4476.410256410258,4214.871794871797,4340.000000000002,4181.0256410256425,0.0,2047.0,2048.0,0.0,0.0,4.0,4.0,4.0,4.0,0.0,4.0,4.0,4.0,4.0,0.0,4.0,1.0,4.0,4.0,4.0,4.0
33.0,0.0,4195.897435897437,4183.589743589745,4184.615384615386,4202.051282051283,4184.615384615386,4209.23076923077,4185.641025641027,4196.410256410258,4199.487179487181,4185.641025641027,4486.666666666668,4214.871794871797,4335.897435897437,4186.153846153848,0.0,2047.0,2048.0,0.0,0.0,4.0,4.0,4.0,4.0,0.0,4.0,4.0,4.0,4.0,0.0,4.0,1.0,4.0,4.0,4.0,4.0
34.0,0.0,4195.897435897437,4185.128205128207,4186.153846153848,4207.179487179489,4185.641025641027,4206.666666666668,4187.692307692309,4191.282051282053,4195.897435897437,4185.128205128207,4498.46153846154,4209.743589743592,4333.846153846155,4178.97435897436,0.0,2047.0,2048.0,0.0,0.0,4.0,4.0,4.0,4.0,0.0,4.0,4.0,4.0,4.0,0.0,4.0,1.0,4.0,4.0,4.0,4.0
35.0,0.0,4195.384615384617,4182.051282051283,4192.8205128205145,4208.20512820513,4184.102564102565,4198.97435897436,4181.538461538463,4181.0256410256425,4184.102564102565,4187.179487179489,4478.46153846154,4208.71794871795,4315.384615384617,4176.410256410258,0.0,2047.0,2048.0,0.0,0.0,4.0,4.0,4.0,4.0,0.0,4.0,4.0,4.0,4.0,0.0,4.0,1.0,4.0,4.0,4.0,4.0
36.0,0.0,4190.256410256412,4168.20512820513,4190.769230769232,4200.000000000002,4186.153846153848,4196.410256410258,4176.923076923078,4181.0256410256425,4184.102564102565,4186.153846153848,4462.564102564104,4211.282051282053,4283.589743589745,4172.8205128205145,0.0,2047.0,2048.0,0.0,0.0,4.0,4.0,4.0,4.0,0.0,4.0,4.0,4.0,4.0,0.0,4.0,1.0,4.0,4.0,4.0,4.0
37.0,0.0,4178.46153846154,4148.71794871795,4175.384615384617,4190.769230769232,4181.538461538463,4199.487179487181,4173.846153846155,4183.076923076925,4187.692307692309,4184.102564102565,4454.871794871797,4210.769230769232,4260.000000000002,4170.256410256412,0.0,2047.0,2048.0,0.0,0.0,4.0,4.0,4.0,4.0,0.0,4.0,4.0,4.0,4.0,0.0,4.0,1.0,4.0,4.0,4.0,4.0
38.0,0.0,4183.589743589745,4146.666666666668,4179.487179487181,4195.384615384617,4183.076923076925,4198.97435897436,4170.769230769232,4183.076923076925,4191.794871794873,4185.128205128207,4457.435897435899,4213.846153846155,4234.871794871797,4177.94871794872,0.0,2047.0,2048.0,0.0,0.0,4.0,4.0,4.0,4.0,0.0,4.0,4.0,4.0,4.0,0.0,4.0,1.0,4.0,4.0,4.0,4.0
39.0,0.0,4200.000000000002,4161.538461538463,4195.897435897437,4211.794871794873,4184.102564102565,4197.435897435899,4172.307692307694,4192.8205128205145,4201.0256410256425,4186.153846153848,4458.46153846154,4213.846153846155,4165.128205128207,4190.769230769232,0.0,2047.0,2048.0,0.0,0.0,4.0,4.0,4.0,4.0,0.0,4.0,4.0,4.0,4.0,0.0,4.0,1.0,4.0,4.0,4.0,4.0
40.0,0.0,4203.076923076925,4166.153846153848,4198.97435897436,4218.46153846154,4186.153846153848,4206.153846153848,4185.128205128207,4204.102564102565,4202.051282051283,4185.641025641027,4448.20512820513,4215.384615384617,4086.6666666666683,4193.846153846155,0.0,2047.0,2048.0,0.0,0.0,4.0,4.0,4.0,4.0,0.0,4.0,4.0,4.0,4.0,0.0,4.0,1.0,4.0,4.0,4.0,4.0
41.0,0.0,4199.487179487181,4160.000000000002,4195.897435897437,4213.846153846155,4187.179487179489,4214.3589743589755,4196.410256410258,4204.615384615386,4199.487179487181,4185.641025641027,4429.23076923077,4216.923076923078,4080.0000000000014,4191.794871794873,0.0,2047.0,2048.0,0.0,0.0,4.0,4.0,4.0,4.0,0.0,4.0,4.0,4.0,4.0,0.0,4.0,1.0,4.0,4.0,4.0,4.0
42.0,0.0,4201.0256410256425,4156.923076923078,4192.307692307694,4211.794871794873,4182.564102564104,4209.23076923077,4192.307692307694,4203.076923076925,4203.076923076925,4186.153846153848,4414.3589743589755,4214.3589743589755,4112.307692307694,4195.897435897437,0.0,2047.0,2048.0,0.0,0.0,4.0,4.0,4.0,4.0,0.0,4.0,4.0,4.0,4.0,0.0,4.0,1.0,4.0,4.0,4.0,4.0
43.0,0.0,4199.487179487181,4158.46153846154,4190.769230769232,4209.743589743592,4184.615384615386,4204.102564102565,4185.641025641027,4202.564102564104,4200.000000000002,4186.153846153848,4392.307692307694,4216.410256410258,4116.923076923078,4196.923076923078,0.0,2047.0,2048.0,0.0,0.0,4.0,4.0,4.0,4.0,0.0,4.0,4.0,4.0,4.0,0.0,4.0,1.0,4.0,4.0,4.0,4.0
44.0,0.0,4190.769230769232,4155.384615384617,4190.769230769232,4205.128205128207,4183.076923076925,4203.076923076925,4184.615384615386,4191.794871794873,4187.692307692309,4186.153846153848,4360.512820512822,4214.871794871797,4111.282051282053,4188.20512820513,0.0,2047.0,2048.0,0.0,0.0,4.0,4.0,4.0,4.0,0.0,4.0,4.0,4.0,4.0,0.0,4.0,1.0,4.0,4.0,4.0,4.0
45.0,0.0,4190.769230769232,4151.282051282053,4192.8205128205145,4202.051282051283,4187.179487179489,4203.076923076925,4185.641025641027,4183.076923076925,4181.538461538463,4186.153846153848,4341.0256410256425,4211.282051282053,4123.589743589745,4182.564102564104,0.0,2047.0,2048.0,0.0,0.0,4.0,4.0,4.0,4.0,0.0,4.0,4.0,4.0,4.0,0.0,4.0,1.0,4.0,4.0,4.0,4.0
46.0,0.0,4201.538461538463,4152.307692307694,4197.94871794872,4204.615384615386,4190.769230769232,4206.666666666668,4184.102564102565,4190.256410256412,4184.615384615386,4186.153846153848,4337.435897435899,4215.384615384617,4149.23076923077,4187.179487179489,0.0,2047.0,2048.0,0.0,0.0,4.0,4.0,4.0,4.0,0.0,4.0,4.0,4.0,4.0,0.0,4.0,1.0,4.0,4.0,4.0,4.0
47.0,0.0,4202.564102564104,4154.3589743589755,4188.20512820513,4208.20512820513,4179.487179487181,4208.71794871795,4182.051282051283,4198.97435897436,4191.794871794873,4185.641025641027,4332.8205128205145,4217.435897435899,4175.897435897437,4189.743589743592,0.0,2047.0,2048.0,0.0,0.0,4.0,4.0,4.0,4.0,0.0,4.0,4.0,4.0,4.0,0.0,4.0,1.0,4.0,4.0,4.0,4.0
48.0,0.0,4190.769230769232,4148.20512820513,4174.871794871797,4206.153846153848,4178.46153846154,4204.102564102565,4182.051282051283,4201.538461538463,4195.897435897437,4186.153846153848,4298.97435897436,4217.94871794872,4187.692307692309,4181.538461538463,0.0,2047.0,2048.0,0.0,0.0,4.0,4.0,4.0,4.0,0.0,4.0,4.0,4.0,4.0,0.0,4.0,1.0,4.0,4.0,4.0,4.0
49.0,0.0,4186.666666666668,4140.512820512822,4180.512820512822,4204.102564102565,4182.051282051283,4201.538461538463,4183.589743589745,4201.538461538463,4193.846153846155,4186.153846153848,4268.71794871795,4214.3589743589755,4204.102564102565,4175.384615384617,0.0,2047.0,2048.0,0.0,0.0,4.0,4.0,4.0,4.0,0.0,4.0,4.0,4.0,4.0,0.0,4.0,1.0,4.0,4.0,4.0,4.0
50.0,0.0,4189.23076923077,4143.076923076925,4196.410256410258,4205.128205128207,4185.128205128207,4197.94871794872,4186.153846153848,4196.410256410258,4188.20512820513,4185.641025641027,4258.97435897436,4211.794871794873,4223.589743589745,4173.333333333335,0.0,2047.0,2048.0,0.0,0.0,4.0,4.0,4.0,4.0,0.0,4.0,4.0,4.0,4.0,0.0,4.0,1.0,4.0,4.0,4.0,4.0
51.0,0.0,4183.076923076925,4143.076923076925,4197.94871794872,4207.179487179489,4189.743589743592,4190.769230769232,4187.179487179489,4191.794871794873,4185.641025641027,4185.128205128207,4167.692307692309,4215.897435897437,4225.641025641027,4170.769230769232,0.0,2047.0,2048.0,0.0,0.0,4.0,4.0,4.0,4.0,0.0,4.0,4.0,4.0,4.0,0.0,4.0,1.0,4.0,4.0,4.0,4.0
52.0,0.0,4175.897435897437,4128.20512820513,4178.97435897436,4201.538461538463,4185.128205128207,4185.128205128207,4178.97435897436,4186.153846153848,4182.564102564104,4185.128205128207,3974.358974358976,4211.794871794873,4235.897435897437,4164.615384615386,0.0,2047.0,2048.0,0.0,0.0,4.0,4.0,4.0,4.0,0.0,4.0,4.0,4.0,4.0,0.0,4.0,1.0,4.0,4.0,4.0,4.0
53.0,0.0,4174.871794871797,4122.564102564104,4167.692307692309,4196.923076923078,4185.641025641027,4185.128205128207,4173.333333333335,4180.512820512822,4178.97435897436,4185.128205128207,3849.743589743591,4209.23076923077,4256.410256410258,4153.846153846155,0.0,2047.0,2048.0,0.0,0.0,4.0,4.0,4.0,4.0,0.0,4.0,4.0,4.0,4.0,0.0,4.0,1.0,4.0,4.0,4.0,4.0
54.0,0.0,4181.0256410256425,4135.897435897437,4178.46153846154,4205.641025641027,4184.102564102565,4193.846153846155,4184.102564102565,4189.23076923077,4184.102564102565,4185.128205128207,3853.846153846155,4213.846153846155,4275.384615384617,4154.871794871797,0.0,2047.0,2048.0,0.0,0.0,4.0,4.0,4.0,4.0,0.0,4.0,4.0,4.0,4.0,0.0,4.0,1.0,4.0,4.0,4.0,4.0
55.0,0.0,4187.692307692309,4141.0256410256425,4191.282051282053,4215.897435897437,4182.051282051283,4198.97435897436,4189.23076923077,4203.076923076925,4187.179487179489,4185.128205128207,3824.102564102566,4218.46153846154,4273.333333333335,4177.94871794872,0.0,2047.0,2048.0,0.0,0.0,4.0,4.0,4.0,4.0,0.0,4.0,4.0,4.0,4.0,0.0,4.0,1.0,4.0,4.0,4.0,4.0
56.0,0.0,4193.333333333335,4138.46153846154,4190.256410256412,4218.97435897436,4188.20512820513,4199.487179487181,4185.641025641027,4201.538461538463,4189.743589743592,4185.128205128207,3769.743589743591,4219.487179487181,4263.589743589745,4184.615384615386,0.0,2047.0,2048.0,0.0,0.0,4.0,4.0,4.0,4.0,0.0,4.0,4.0,4.0,4.0,0.0,4.0,1.0,4.0,4.0,4.0,4.0
57.0,0.0,4195.384615384617,4147.179487179489,4182.564102564104,4218.97435897436,4184.615384615386,4208.71794871795,4191.794871794873,4201.0256410256425,4200.512820512822,4185.128205128207,3795.8974358974374,4214.3589743589755,4287.179487179489,4169.23076923077,0.0,2047.0,2048.0,0.0,0.0,4.0,4.0,4.0,4.0,0.0,4.0,4.0,4.0,4.0,0.0,4.0,1.0,4.0,4.0,4.0,4.0
58.0,0.0,4201.0256410256425,4158.97435897436,4189.23076923077,4222.564102564104,4183.076923076925,4214.871794871797,4194.3589743589755,4209.23076923077,4201.538461538463,4185.128205128207,3829.743589743591,4216.410256410258,4307.692307692309,4176.923076923078,0.0,2047.0,2048.0,0.0,0.0,4.0,4.0,4.0,4.0,0.0,4.0,4.0,4.0,4.0,0.0,4.0,1.0,4.0,4.0,4.0,4.0
59.0,0.0,4199.487179487181,4148.71794871795,4195.384615384617,4217.435897435899,4185.128205128207,4204.102564102565,4184.615384615386,4198.97435897436,4186.153846153848,4185.128205128207,3818.9743589743607,4215.897435897437,4277.94871794872,4185.641025641027,0.0,2047.0,2048.0,0.0,0.0,4.0,4.0,4.0,4.0,0.0,4.0,4.0,4.0,4.0,0.0,4.0,1.0,4.0,4.0,4.0,4.0
60.0,0.0,4186.666666666668,4135.897435897437,4190.256410256412,4206.153846153848,4188.20512820513,4196.923076923078,4184.102564102565,4188.20512820513,4179.487179487181,4185.128205128207,3778.46153846154,4211.794871794873,4243.589743589745,4167.179487179489,0.0,2047.0,2048.0,0.0,0.0,4.0,4.0,4.0,4.0,0.0,4.0,4.0,4.0,4.0,0.0,4.0,1.0,4.0,4.0,4.0,4.0
61.0,0.0,4192.307692307694,4145.641025641027,4194.3589743589755,4212.307692307694,4190.769230769232,4209.23076923077,4190.256410256412,4197.94871794872,4189.743589743592,4185.128205128207,3760.512820512822,4216.410256410258,4235.384615384617,4158.46153846154,0.0,2047.0,2048.0,0.0,0.0,4.0,4.0,4.0,4.0,0.0,4.0,4.0,4.0,4.0,0.0,4.0,1.0,4.0,4.0,4.0,4.0
62.0,0.0,4203.589743589745,4146.666666666668,4189.23076923077,4216.410256410258,4180.512820512822,4212.8205128205145,4187.179487179489,4205.128205128207,4201.0256410256425,4185.128205128207,3768.71794871795,4216.410256410258,4222.564102564104,4174.871794871797,0.0,2047.0,2048.0,0.0,0.0,4.0,4.0,4.0,4.0,0.0,4.0,4.0,4.0,4.0,0.0,4.0,1.0,4.0,4.0,4.0,4.0
63.0,0.0,4199.487179487181,4135.897435897437,4185.128205128207,4203.589743589745,4181.538461538463,4206.153846153848,4182.564102564104,4197.94871794872,4197.435897435899,4185.128205128207,3784.102564102566,4215.384615384617,4226.666666666668,4185.641025641027,0.0,2047.0,2048.0,0.0,0.0,4.0,4.0,4.0,4.0,0.0,4.0,4.0,4.0,4.0,0.0,4.0,1.0,4.0,4.0,4.0,4.0
64.0,0.0,4197.435897435899,4143.076923076925,4196.923076923078,4197.435897435899,4189.23076923077,4209.23076923077,4184.102564102565,4194.3589743589755,4187.692307692309,4185.128205128207,3814.358974358976,4216.410256410258,4242.564102564104,4169.23076923077,664.0,2047.0,2048.0,0.0,0.0,4.0,4.0,4.0,4.0,0.0,4.0,4.0,4.0,4.0,0.0,4.0,1.0,4.0,4.0,4.0,4.0
65.0,0.0,4198.46153846154,4152.8205128205145,4197.94871794872,4200.512820512822,4186.666666666668,4212.8205128205145,4184.102564102565,4202.051282051283,4192.307692307694,4185.128205128207,3814.8717948717963,4215.897435897437,4198.46153846154,4169.23076923077,827.0,2047.0,2048.0,0.0,0.0,4.0,4.0,4.0,4.0,0.0,4.0,4.0,4.0,4.0,0.0,4.0,1.0,4.0,4.0,4.0,4.0
66.0,0.0,4192.8205128205145,4149.23076923077,4195.897435897437,4199.487179487181,4188.71794871795,4209.23076923077,4184.102564102565,4203.076923076925,4197.94871794872,4185.128205128207,3828.2051282051298,4220.512820512822,4156.923076923078,4189.23076923077,797.0,2047.0,2048.0,0.0,0.0,4.0,4.0,4.0,4.0,0.0,4.0,4.0,4.0,4.0,0.0,4.0,1.0,4.0,4.0,4.0,4.0
67.0,0.0,4185.128205128207,4146.153846153848,4191.282051282053,4195.384615384617,4184.615384615386,4211.794871794873,4180.512820512822,4187.692307692309,4190.769230769232,4185.128205128207,3942.0512820512836,4213.333333333335,4191.794871794873,4163.589743589745,774.0,2047.0,2048.0,0.0,0.0,4.0,4.0,4.0,4.0,0.0,4.0,4.0,4.0,4.0,0.0,4.0,1.0,4.0,4.0,4.0,4.0
68.0,0.0,4183.076923076925,4146.666666666668,4168.71794871795,4190.256410256412,4177.94871794872,4226.153846153848,4173.846153846155,4174.871794871797,4182.564102564104,4185.128205128207,4033.333333333335,4203.589743589745,4192.8205128205145,4132.307692307694,0.0,2047.0,2048.0,0.0,0.0,4.0,4.0,4.0,4.0,0.0,4.0,4.0,4.0,4.0,0.0,4.0,1.0,4.0,4.0,4.0,4.0
69.0,0.0,4193.846153846155,4145.641025641027,4164.102564102565,4185.641025641027,4175.897435897437,4243.076923076925,4175.384615384617,4190.256410256412,4182.564102564104,4185.128205128207,3965.1282051282064,4222.051282051283,4081.5384615384633,4197.435897435899,764.0,2047.0,2048.0,0.0,0.0,4.0,4.0,4.0,4.0,0.0,4.0,4.0,4.0,4.0,0.0,4.0,1.0,4.0,4.0,4.0,4.0
70.0,0.0,4202.564102564104,4157.435897435899,4189.23076923077,4197.435897435899,4180.512820512822,4247.692307692309,4185.641025641027,4205.641025641027,4182.564102564104,4185.128205128207,3963.589743589745,4236.923076923078,3998.9743589743607,4256.410256410258,801.0,2047.0,2048.0,0.0,0.0,4.0,4.0,4.0,4.0,0.0,4.0,4.0,4.0,4.0,0.0,4.0,1.0,4.0,4.0,4.0,4.0
71.0,0.0,4189.743589743592,4171.794871794873,4206.153846153848,4203.589743589745,4193.333333333335,4231.794871794873,4189.23076923077,4190.256410256412,4182.564102564104,4185.128205128207,4183.076923076925,4213.333333333335,4053.846153846155,4182.564102564104,781.0,2047.0,2048.0,0.0,0.0,4.0,4.0,4.0,4.0,0.0,4.0,4.0,4.0,4.0,0.0,4.0,1.0,4.0,4.0,4.0,4.0
72.0,0.0,4182.564102564104,4165.641025641027,4201.0256410256425,4190.256410256412,4189.743589743592,4212.307692307694,4181.538461538463,4178.97435897436,4182.564102564104,4185.128205128207,4280.000000000002,4195.384615384617,4078.9743589743603,4142.051282051283,618.0,2047.0,2048.0,0.0,0.0,4.0,4.0,4.0,4.0,0.0,4.0,4.0,4.0,4.0,0.0,4.0,1.0,4.0,4.0,4.0,4.0
73.0,0.0,4193.846153846155,4158.46153846154,4182.564102564104,4185.128205128207,4174.3589743589755,4216.410256410258,4175.384615384617,4189.743589743592,4184.615384615386,4185.128205128207,4191.282051282053,4214.3589743589755,4043.0769230769247,4203.589743589745,0.0,2047.0,2048.0,0.0,0.0,4.0,4.0,4.0,4.0,0.0,4.0,4.0,4.0,4.0,0.0,4.0,1.0,4.0,4.0,4.0,4.0
74.0,0.0,4196.410256410258,4165.641025641027,4162.051282051283,4191.794871794873,4163.589743589745,4230.256410256412,4174.3589743589755,4190.769230769232,4192.8205128205145,4185.128205128207,4226.153846153848,4218.46153846154,4052.8205128205145,4221.0256410256425,852.0,2047.0,2048.0,0.0,0.0,4.0,4.0,4.0,4.0,0.0,4.0,4.0,4.0,4.0,0.0,4.0,1.0,4.0,4.0,4.0,4.0
75.0,0.0,4194.871794871797,4175.384615384617,4170.769230769232,4193.333333333335,4169.23076923077,4244.102564102565,4183.076923076925,4187.179487179489,4203.076923076925,4185.128205128207,4335.897435897437,4201.538461538463,4065.1282051282064,4181.0256410256425,832.0,2047.0,2048.0,0.0,0.0,4.0,4.0,4.0,4.0,0.0,4.0,4.0,4.0,4.0,0.0,4.0,1.0,4.0,4.0,4.0,4.0
76.0,0.0,4196.410256410258,4180.000000000002,4196.410256410258,4191.794871794873,4187.692307692309,4262.564102564104,4200.000000000002,4197.435897435899,4205.641025641027,4185.128205128207,4345.128205128207,4207.179487179489,4114.3589743589755,4156.923076923078,849.0,2047.0,2048.0,0.0,0.0,4.0,4.0,4.0,4.0,0.0,4.0,4.0,4.0,4.0,0.0,4.0,1.0,4.0,4.0,4.0,4.0
77.0,0.0,4192.8205128205145,4181.0256410256425,4194.3589743589755,4192.307692307694,4186.153846153848,4267.692307692309,4199.487179487181,4201.0256410256425,4188.20512820513,4185.128205128207,4328.20512820513,4218.46153846154,4205.641025641027,4163.589743589745,45.0,2047.0,2048.0,0.0,0.0,4.0,4.0,4.0,4.0,0.0,4.0,4.0,4.0,4.0,0.0,4.0,1.0,4.0,4.0,4.0,4.0
78.0,0.0,4190.769230769232,4175.897435897437,4184.102564102565,4188.71794871795,4180.512820512822,4254.871794871797,4184.615384615386,4188.71794871795,4172.8205128205145,4185.128205128207,4343.076923076925,4216.923076923078,4233.333333333335,4169.23076923077,852.0,2047.0,2048.0,0.0,0.0,4.0,4.0,4.0,4.0,0.0,4.0,4.0,4.0,4.0,0.0,4.0,1.0,4.0,4.0,4.0,4.0
79.0,0.0,4190.256410256412,4169.23076923077,4180.512820512822,4184.102564102565,4182.564102564104,4247.179487179489,4179.487179487181,4182.051282051283,4183.076923076925,4185.128205128207,4369.23076923077,4210.769230769232,4236.410256410258,4156.410256410258,832.0,2047.0,2048.0,0.0,0.0,4.0,4.0,4.0,4.0,0.0,4.0,4.0,4.0,4.0,0.0,4.0,1.0,4.0,4.0,4.0,4.0
80.0,0.0,4185.641025641027,4168.71794871795,4178.97435897436,4186.153846153848,4181.538461538463,4247.692307692309,4184.615384615386,4182.051282051283,4188.20512820513,4185.128205128207,4424.102564102565,4204.615384615386,4295.384615384617,4148.71794871795,849.0,2047.0,2048.0,0.0,0.0,4.0,4.0,4.0,4.0,0.0,4.0,4.0,4.0,4.0,0.0,4.0,1.0,4.0,4.0,4.0,4.0
81.0,0.0,4183.589743589745,4164.102564102565,4189.743589743592,4184.615384615386,4189.23076923077,4243.589743589745,4182.564102564104,4186.153846153848,4179.487179487181,4185.128205128207,4412.307692307694,4209.743589743592,4318.46153846154,4169.23076923077,45.0,2047.0,2048.0,0.0,0.0,4.0,4.0,4.0,4.0,0.0,4.0,4.0,4.0,4.0,0.0,4.0,1.0,4.0,4.0,4.0,4.0
82.0,0.0,4189.23076923077,4161.538461538463,4194.3589743589755,4185.128205128207,4187.692307692309,4239.487179487181,4180.000000000002,4195.897435897437,4183.589743589745,4185.128205128207,4336.410256410258,4215.384615384617,4293.846153846155,4190.256410256412,852.0,2047.0,2048.0,0.0,0.0,4.0,4.0,4.0,4.0,0.0,4.0,4.0,4.0,4.0,0.0,4.0,1.0,4.0,4.0,4.0,4.0
83.0,0.0,4187.179487179489,4168.20512820513,4183.076923076925,4186.666666666668,4181.0256410256425,4246.666666666668,4184.102564102565,4194.871794871797,4192.307692307694,4185.128205128207,4422.051282051283,4206.153846153848,4355.897435897437,4162.564102564104,832.0,2047.0,2048.0,0.0,0.0,4.0,4.0,4.0,4.0,0.0,4.0,4.0,4.0,4.0,0.0,4.0,1.0,4.0,4.0,4.0,4.0
84.0,0.0,4183.589743589745,4172.307692307694,4178.97435897436,4185.641025641027,4184.102564102565,4252.307692307694,4184.615384615386,4181.0256410256425,4185.128205128207,4185.128205128207,4542.564102564104,4200.512820512822,4425.128205128207,4131.794871794873,849.0,2047.0,2048.0,0.0,0.0,4.0,4.0,4.0,4.0,0.0,4.0,4.0,4.0,4.0,0.0,4.0,1.0,4.0,4.0,4.0,4.0
85.0,0.0,4190.769230769232,4170.769230769232,4187.692307692309,4188.71794871795,4184.102564102565,4250.769230769232,4183.589743589745,4180.000000000002,4189.743589743592,4185.128205128207,4501.538461538463,4205.641025641027,4393.846153846155,4146.666666666668,45.0,2047.0,2048.0,0.0,0.0,4.0,4.0,4.0,4.0,0.0,4.0,4.0,4.0,4.0,0.0,4.0,1.0,4.0,4.0,4.0,4.0
86.0,0.0,4198.46153846154,4171.794871794873,4194.871794871797,4193.846153846155,4188.20512820513,4251.282051282053,4183.076923076925,4192.307692307694,4212.307692307694,4185.128205128207,4466.666666666668,4209.23076923077,4364.102564102565,4171.282051282053,852.0,2047.0,2048.0,0.0,0.0,4.0,4.0,4.0,4.0,0.0,4.0,4.0,4.0,4.0,0.0,4.0,1.0,4.0,4.0,4.0,4.0
87.0,0.0,4201.538461538463,4178.46153846154,4192.307692307694,4192.8205128205145,4186.153846153848,4250.769230769232,4181.0256410256425,4192.8205128205145,4224.615384615386,4185.128205128207,4511.794871794873,4207.179487179489,4408.20512820513,4175.384615384617,832.0,2047.0,2048.0,0.0,0.0,4.0,4.0,4.0,4.0,0.0,4.0,4.0,4.0,4.0,0.0,4.0,1.0,4.0,4.0,4.0,4.0
88.0,0.0,4198.46153846154,4179.487179487181,4186.666666666668,4187.179487179489,4183.076923076925,4247.179487179489,4174.3589743589755,4184.615384615386,4222.051282051283,4185.128205128207,4516.923076923078,4205.641025641027,4431.794871794873,4168.71794871795,849.0,2047.0,2048.0,0.0,0.0,4.0,4.0,4.0,4.0,0.0,4.0,4.0,4.0,4.0,0.0,4.0,1.0,4.0,4.0,4.0,4.0
89.0,0.0,4192.8205128205145,4178.46153846154,4188.20512820513,4188.71794871795,4187.692307692309,4248.20512820513,4168.71794871795,4182.564102564104,4214.3589743589755,4185.128205128207,4484.615384615386,4208.71794871795,4393.846153846155,4175.384615384617,45.0,2047.0,2048.0,0.0,0.0,4.0,4.0,4.0,4.0,0.0,4.0,4.0,4.0,4.0,0.0,4.0,1.0,4.0,4.0,4.0,4.0
90.0,0.0,4187.692307692309,4182.564102564104,4188.71794871795,4196.410256410258,4184.615384615386,4245.128205128207,4173.846153846155,4184.102564102565,4194.3589743589755,4185.128205128207,4506.666666666668,4203.589743589745,4390.256410256412,4177.94871794872,852.0,2047.0,2048.0,0.0,0.0,4.0,4.0,4.0,4.0,0.0,4.0,4.0,4.0,4.0,0.0,4.0,1.0,4.0,4.0,4.0,4.0
91.0,0.0,4185.128205128207,4183.589743589745,4186.666666666668,4194.871794871797,4183.076923076925,4235.384615384617,4185.641025641027,4182.564102564104,4164.615384615386,4185.128205128207,4526.666666666668,4204.102564102565,4393.333333333335,4170.769230769232,832.0,2047.0,2048.0,0.0,0.0,4.0,4.0,4.0,4.0,0.0,4.0,4.0,4.0,4.0,0.0,4.0,1.0,4.0,4.0,4.0,4.0
92.0,0.0,4186.666666666668,4179.487179487181,4193.846153846155,4193.846153846155,4183.589743589745,4229.743589743592,4190.769230769232,4194.3589743589755,4160.512820512822,4185.128205128207,4473.333333333335,4215.384615384617,4346.153846153848,4181.0256410256425,849.0,2047.0,2048.0,0.0,0.0,4.0,4.0,4.0,4.0,0.0,4.0,4.0,4.0,4.0,0.0,4.0,1.0,4.0,4.0,4.0,4.0
93.0,0.0,4186.153846153848,4178.97435897436,4197.94871794872,4194.871794871797,4186.153846153848,4222.564102564104,4185.641025641027,4206.666666666668,4180.512820512822,4185.128205128207,4433.846153846155,4215.897435897437,4323.076923076925,4188.20512820513,45.0,2047.0,2048.0,0.0,0.0,4.0,4.0,4.0,4.0,0.0,4.0,4.0,4.0,4.0,0.0,4.0,1.0,4.0,4.0,4.0,4.0
94.0,0.0,4185.641025641027,4184.615384615386,4197.435897435899,4194.3589743589755,4189.743589743592,4221.0256410256425,4180.000000000002,4194.871794871797,4182.051282051283,4185.128205128207,4465.128205128207,4208.71794871795,4343.076923076925,4178.97435897436,852.0,2047.0,2048.0,0.0,0.0,4.0,4.0,4.0,4.0,0.0,4.0,4.0,4.0,4.0,0.0,4.0,1.0,4.0,4.0,4.0,4.0
95.0,0.0,4185.641025641027,4181.0256410256425,4198.97435897436,4193.846153846155,4186.153846153848,4226.666666666668,4183.076923076925,4183.076923076925,4174.3589743589755,4185.128205128207,4494.871794871797,4205.641025641027,4351.282051282053,4174.3589743589755,832.0,2047.0,2048.0,0.0,0.0,4.0,4.0,4.0,4.0,0.0,4.0,4.0,4.0,4.0,0.0,4.0,1.0,4.0,4.0,4.0,4.0
96.0,0.0,4180.512820512822,4172.307692307694,4198.46153846154,4189.743589743592,4188.71794871795,4224.102564102565,4185.641025641027,4186.666666666668,4176.410256410258,4185.128205128207,4452.8205128205145,4209.743589743592,4318.46153846154,4176.410256410258,849.0,2047.0,2048.0,0.0,0.0,4.0,4.0,4.0,4.0,0.0,4.0,4.0,4.0,4.0,0.0,4.0,1.0,4.0,4.0,4.0,4.0
97.0,0.0,4181.538461538463,4174.871794871797,4193.333333333335,4192.307692307694,4186.153846153848,4222.564102564104,4176.410256410258,4189.743589743592,4176.410256410258,4185.128205128207,4418.97435897436,4212.307692307694,4280.000000000002,4178.97435897436,45.0,2047.0,2048.0,0.0,0.0,4.0,4.0,4.0,4.0,0.0,4.0,4.0,4.0,4.0,0.0,4.0,1.0,4.0,4.0,4.0,4.0
98.0,0.0,4190.769230769232,4188.20512820513,4190.769230769232,4200.512820512822,4180.000000000002,4232.8205128205145,4169.23076923077,4188.20512820513,4180.000000000002,4185.128205128207,4435.897435897437,4209.23076923077,4270.769230769232,4186.153846153848,852.0,2047.0,2048.0,0.0,0.0,4.0,4.0,4.0,4.0,0.0,4.0,4.0,4.0,4.0,0.0,4.0,1.0,4.0,4.0,4.0,4.0
99.0,0.0,4187.692307692309,4188.71794871795,4191.794871794873,4198.46153846154,4185.641025641027,4233.333333333335,4171.282051282053,4189.23076923077,4181.538461538463,4185.128205128207,4426.153846153848,4209.23076923077,4225.641025641027,4195.384615384617,832.0,2047.0,2048.0,0.0,0.0,4.0,4.0,4.0,4.0,0.0,4.0,4.0,4.0,4.0,0.0,4.0,1.0,4.0,4.0,4.0,4.0
100.0,0.0,4174.3589743589755,4175.897435897437,4182.564102564104,4187.179487179489,4185.641025641027,4227.692307692309,4169.23076923077,4187.179487179489,4174.3589743589755,4185.128205128207,4391.282051282053,4207.179487179489,4119.487179487181,4185.641025641027,849.0,2047.0,2048.0,0.0,0.0,4.0,4.0,4.0,4.0,0.0,4.0,4.0,4.0,4.0,0.0,4.0,1.0,4.0,4.0,4.0,4.0
101.0,0.0,4163.076923076925,4166.666666666668,4174.871794871797,4177.94871794872,4182.564102564104,4230.769230769232,4170.769230769232,4185.128205128207,4172.307692307694,4185.128205128207,4367.179487179488,4208.20512820513,4028.71794871795,4169.23076923077,45.0,2047.0,2048.0,0.0,0.0,4.0,4.0,4.0,4.0,0.0,4.0,4.0,4.0,4.0,0.0,4.0,1.0,4.0,4.0,4.0,4.0
102.0,0.0,4159.487179487181,4163.589743589745,4174.871794871797,4169.743589743592,4184.102564102565,4233.333333333335,4184.102564102565,4186.153846153848,4175.897435897437,4185.128205128207,4350.256410256412,4211.794871794873,4012.3076923076937,4168.71794871795,852.0,2047.0,2048.0,0.0,0.0,4.0,4.0,4.0,4.0,0.0,4.0,4.0,4.0,4.0,0.0,4.0,1.0,4.0,4.0,4.0,4.0
103.0,0.0,4171.282051282053,4172.307692307694,4179.487179487181,4177.435897435899,4184.102564102565,4231.282051282053,4185.641025641027,4192.8205128205145,4177.435897435899,4185.128205128207,4347.692307692309,4210.769230769232,4039.487179487181,4178.46153846154,832.0,2047.0,2048.0,0.0,0.0,4.0,4.0,4.0,4.0,0.0,4.0,4.0,4.0,4.0,0.0,4.0,1.0,4.0,4.0,4.0,4.0
104.0,0.0,4187.692307692309,4188.71794871795,4190.256410256412,4196.410256410258,4185.641025641027,4230.769230769232,4173.846153846155,4200.512820512822,4183.589743589745,4185.128205128207,4341.0256410256425,4214.871794871797,4060.0000000000014,4189.743589743592,849.0,2047.0,2048.0,0.0,0.0,4.0,4.0,4.0,4.0,0.0,4.0,4.0,4.0,4.0,0.0,4.0,1.0,4.0,4.0,4.0,4.0
105.0,0.0,4186.153846153848,4190.256410256412,4187.692307692309,4191.282051282053,4180.512820512822,4227.692307692309,4166.666666666668,4193.846153846155,4190.256410256412,4185.128205128207,4307.692307692309,4214.871794871797,4071.2820512820526,4186.153846153848,45.0,2047.0,2048.0,0.0,0.0,4.0,4.0,4.0,4.0,0.0,4.0,4.0,4.0,4.0,0.0,4.0,1.0,4.0,4.0,4.0,4.0
106.0,0.0,4173.846153846155,4180.000000000002,4179.487179487181,4178.97435897436,4180.512820512822,4220.000000000002,4166.666666666668,4181.538461538463,4181.0256410256425,4185.128205128207,4267.692307692309,4211.794871794873,4075.8974358974374,4170.769230769232,852.0,2047.0,2048.0,0.0,0.0,4.0,4.0,4.0,4.0,0.0,4.0,4.0,4.0,4.0,0.0,4.0,1.0,4.0,4.0,4.0,4.0
107.0,0.0,4172.8205128205145,4177.435897435899,4185.641025641027,4184.615384615386,4186.153846153848,4217.435897435899,4172.307692307694,4181.0256410256425,4173.846153846155,4185.128205128207,4249.743589743592,4213.846153846155,4085.1282051282064,4168.20512820513,832.0,2047.0,2048.0,0.0,0.0,4.0,4.0,4.0,4.0,0.0,4.0,4.0,4.0,4.0,0.0,4.0,1.0,4.0,4.0,4.0,4.0
108.0,0.0,4179.487179487181,4183.589743589745,4183.589743589745,4189.23076923077,4178.46153846154,4227.692307692309,4178.97435897436,4188.20512820513,4180.000000000002,4185.128205128207,4244.615384615386,4211.794871794873,4109.743589743592,4177.94871794872,849.0,2047.0,2048.0,0.0,0.0,4.0,4.0,4.0,4.0,0.0,4.0,4.0,4.0,4.0,0.0,4.0,1.0,4.0,4.0,4.0,4.0
109.0,0.0,4185.641025641027,4187.179487179489,4167.179487179489,4190.769230769232,4171.282051282053,4232.8205128205145,4176.923076923078,4193.846153846155,4185.128205128207,4185.128205128207,4228.20512820513,4212.8205128205145,4132.8205128205145,4183.589743589745,45.0,2047.0,2048.0,0.0,0.0,4.0,4.0,4.0,4.0,0.0,4.0,4.0,4.0,4.0,0.0,4.0,1.0,4.0,4.0,4.0,4.0
110.0,0.0,4188.20512820513,4187.692307692309,4166.153846153848,4196.923076923078,4172.307692307694,4221.0256410256425,4167.692307692309,4197.435897435899,4183.589743589745,4185.128205128207,4195.897435897437,4215.384615384617,4147.692307692309,4180.000000000002,852.0,2047.0,2048.0,0.0,0.0,4.0,4.0,4.0,4.0,0.0,4.0,4.0,4.0,4.0,0.0,4.0,1.0,4.0,4.0,4.0,4.0
111.0,0.0,4182.051282051283,4186.666666666668,4185.641025641027,4201.0256410256425,4185.641025641027,4210.769230769232,4167.692307692309,4200.000000000002,4184.102564102565,4185.128205128207,4172.8205128205145,4213.333333333335,4154.871794871797,4174.871794871797,832.0,2047.0,2048.0,0.0,0.0,4.0,4.0,4.0,4.0,0.0,4.0,4.0,4.0,4.0,0.0,4.0,1.0,4.0,4.0,4.0,4.0
112.0,0.0,4173.333333333335,4184.615384615386,4195.897435897437,4197.435897435899,4193.846153846155,4214.871794871797,4180.512820512822,4199.487179487181,4189.23076923077,4185.128205128207,4136.923076923078,4215.897435897437,4153.846153846155,4173.333333333335,849.0,2047.0,2048.0,0.0,0.0,4.0,4.0,4.0,4.0,0.0,4.0,4.0,4.0,4.0,0.0,4.0,1.0,4.0,4.0,4.0,4.0
113.0,0.0,4166.153846153848,4180.000000000002,4180.000000000002,4189.743589743592,4184.102564102565,4215.384615384617,4183.589743589745,4191.794871794873,4187.692307692309,4185.128205128207,3996.4102564102577,4214.871794871797,4157.94871794872,4169.743589743592,45.0,2047.0,2048.0,0.0,0.0,4.0,4.0,4.0,4.0,0.0,4.0,4.0,4.0,4.0,0.0,4.0,1.0,4.0,4.0,4.0,4.0
114.0,0.0,4168.20512820513,4183.076923076925,4171.282051282053,4188.20512820513,4182.564102564104,4208.20512820513,4171.794871794873,4183.076923076925,4182.564102564104,4185.128205128207,3798.9743589743607,4213.333333333335,4171.794871794873,4163.589743589745,852.0,2047.0,2048.0,0.0,0.0,4.0,4.0,4.0,4.0,0.0,4.0,4.0,4.0,4.0,0.0,4.0,1.0,4.0,4.0,4.0,4.0
115.0,0.0,4171.282051282053,4188.20512820513,4181.0256410256425,4192.8205128205145,4184.615384615386,4208.71794871795,4164.615384615386,4183.589743589745,4182.051282051283,4185.128205128207,3709.230769230771,4214.3589743589755,4174.871794871797,4170.769230769232,832.0,2047.0,2048.0,0.0,0.0,4.0,4.0,4.0,4.0,0.0,4.0,4.0,4.0,4.0,0.0,4.0,1.0,4.0,4.0,4.0,4.0
116.0,0.0,4168.20512820513,4185.641025641027,4185.641025641027,4191.282051282053,4188.20512820513,4213.333333333335,4171.282051282053,4187.692307692309,4182.564102564104,4185.128205128207,3717.9487179487196,4215.897435897437,4169.743589743592,4184.615384615386,849.0,2047.0,2048.0,0.0,0.0,4.0,4.0,4.0,4.0,0.0,4.0,4.0,4.0,4.0,0.0,4.0,1.0,4.0,4.0,4.0,4.0
117.0,0.0,4166.153846153848,4186.666666666668,4184.102564102565,4187.179487179489,4192.307692307694,4214.871794871797,4179.487179487181,4184.102564102565,4182.051282051283,4185.128205128207,3721.0256410256425,4213.333333333335,4191.794871794873,4172.8205128205145,45.0,2047.0,2048.0,0.0,0.0,4.0,4.0,4.0,4.0,0.0,4.0,4.0,4.0,4.0,0.0,4.0,1.0,4.0,4.0,4.0,4.0
118.0,0.0,4171.794871794873,4197.435897435899,4183.076923076925,4189.23076923077,4186.666666666668,4215.897435897437,4180.000000000002,4182.051282051283,4185.128205128207,4185.128205128207,3700.0000000000014,4211.282051282053,4216.410256410258,4168.20512820513,852.0,2047.0,2048.0,0.0,0.0,4.0,4.0,4.0,4.0,0.0,4.0,4.0,4.0,4.0,0.0,4.0,1.0,4.0,4.0,4.0,4.0
119.0,0.0,4173.846153846155,4195.384615384617,4180.000000000002,4190.769230769232,4188.71794871795,4213.333333333335,4173.846153846155,4184.615384615386,4184.615384615386,4185.128205128207,3671.7948717948734,4216.923076923078,4193.846153846155,4181.538461538463,832.0,2047.0,2048.0,0.0,0.0,4.0,4.0,4.0,4.0,0.0,4.0,4.0,4.0,4.0,0.0,4.0,1.0,4.0,4.0,4.0,4.0
120.0,0.0,4163.076923076925,4185.641025641027,4173.333333333335,4187.692307692309,4189.743589743592,4211.282051282053,4165.128205128207,4175.897435897437,4174.3589743589755,4185.128205128207,3689.743589743591,4211.794871794873,4179.487179487181,4161.0256410256425,849.0,2047.0,2048.0,0.0,0.0,4.0,4.0,4.0,4.0,0.0,4.0,4.0,4.0,4.0,0.0,4.0,1.0,4.0,4.0,4.0,4.0
121.0,0.0,4158.46153846154,4189.23076923077,4173.846153846155,4177.94871794872,4187.179487179489,4210.256410256412,4168.71794871795,4171.282051282053,4170.256410256412,4185.128205128207,3717.435897435899,4206.666666666668,4176.410256410258,4154.3589743589755,45.0,2047.0,2048.0,0.0,0.0,4.0,4.0,4.0,4.0,0.0,4.0,4.0,4.0,4.0,0.0,4.0,1.0,4.0,4.0,4.0,4.0
122.0,0.0,4168.71794871795,4195.384615384617,4181.538461538463,4174.3589743589755,4187.179487179489,4209.743589743592,4171.794871794873,4179.487179487181,4173.333333333335,4185.128205128207,3675.384615384617,4218.46153846154,4143.076923076925,4193.846153846155,852.0,2047.0,2048.0,0.0,0.0,4.0,4.0,4.0,4.0,0.0,4.0,4.0,4.0,4.0,0.0,4.0,1.0,4.0,4.0,4.0,4.0
123.0,0.0,4171.282051282053,4205.128205128207,4177.435897435899,4183.076923076925,4181.538461538463,4209.743589743592,4161.0256410256425,4176.923076923078,4172.307692307694,4185.128205128207,3664.102564102566,4214.871794871797,4138.46153846154,4191.282051282053,832.0,2047.0,2048.0,0.0,0.0,4.0,4.0,4.0,4.0,0.0,4.0,4.0,4.0,4.0,0.0,4.0,1.0,4.0,4.0,4.0,4.0
124.0,0.0,4165.641025641027,4216.923076923078,4170.769230769232,4188.20512820513,4181.0256410256425,4213.846153846155,4161.0256410256425,4167.692307692309,4173.846153846155,4185.128205128207,3766.1538461538476,4201.538461538463,4172.8205128205145,4148.20512820513,849.0,2047.0,2048.0,0.0,0.0,4.0,4.0,4.0,4.0,0.0,4.0,4.0,4.0,4.0,0.0,4.0,1.0,4.0,4.0,4.0,4.0
125.0,0.0,4171.282051282053,4218.46153846154,4171.282051282053,4185.128205128207,4180.000000000002,4221.538461538463,4171.282051282053,4181.538461538463,4182.564102564104,4185.128205128207,3864.615384615386,4204.615384615386,4171.794871794873,4159.487179487181,45.0,2047.0,2048.0,0.0,0.0,4.0,4.0,4.0,4.0,0.0,4.0,4.0,4.0,4.0,0.0,4.0,1.0,4.0,4.0,4.0,4.0
126.0,0.0,4177.435897435899,4217.435897435899,4180.512820512822,4183.076923076925,4180.512820512822,4230.769230769232,4176.923076923078,4190.256410256412,4184.102564102565,4185.128205128207,3867.1794871794887,4212.8205128205145,4133.846153846155,4191.794871794873,852.0,2047.0,2048.0,0.0,0.0,4.0,4.0,4.0,4.0,0.0,4.0,4.0,4.0,4.0,0.0,4.0,1.0,4.0,4.0,4.0,4.0
127.0,0.0,4165.128205128207,4211.794871794873,4183.589743589745,4174.3589743589755,4183.589743589745,4238.97435897436,4173.333333333335,4171.794871794873,4182.051282051283,4185.128205128207,3888.2051282051298,4211.794871794873,4107.692307692309,4170.769230769232,832.0,2047.0,2048.0,0.0,0.0,4.0,4.0,4.0,4.0,0.0,4.0,4.0,4.0,4.0,0.0,4.0,1.0,4.0,4.0,4.0,4.0
128.0,0.0,4162.564102564104,4196.410256410258,4168.20512820513,4167.179487179489,4176.410256410258,4262.051282051283,4164.102564102565,4164.102564102565,4183.076923076925,4185.128205128207,3986.1538461538476,4209.23076923077,4105.641025641027,4155.897435897437,849.0,2047.0,2048.0,0.0,0.0,4.0,4.0,4.0,4.0,0.0,4.0,4.0,4.0,4.0,0.0,4.0,1.0,4.0,4.0,4.0,4.0
0.0,0.0,4177.435897435899,4194.3589743589755,4166.153846153848,4172.8205128205145,4177.435897435899,4306.153846153848,4162.051282051283,4169.743589743592,4177.94871794872,4185.128205128207,4089.743589743591,4214.871794871797,4118.46153846154,4186.666666666668,664.0,2047.0,2048.0,0.0,0.0,4.0,4.0,4.0,4.0,0.0,4.0,4.0,4.0,4.0,0.0,4.0,1.0,4.0,4.0,4.0,4.0
1.0,0.0,4179.487179487181,4203.589743589745,4182.051282051283,4177.94871794872,4182.051282051283,4325.128205128207,4165.128205128207,4170.769230769232,4172.307692307694,4185.128205128207,4125.128205128207,4218.46153846154,4077.435897435899,4207.179487179489,827.0,2047.0,2048.0,0.0,0.0,4.0,4.0,4.0,4.0,0.0,4.0,4.0,4.0,4.0,0.0,4.0,1.0,4.0,4.0,4.0,4.0
2.0,0.0,4163.589743589745,4196.923076923078,4177.435897435899,4172.307692307694,4181.0256410256425,4304.102564102565,4168.20512820513,4174.3589743589755,4170.256410256412,4185.128205128207,4112.307692307694,4213.846153846155,4002.564102564104,4190.256410256412,797.0,2047.0,2048.0,0.0,0.0,4.0,4.0,4.0,4.0,0.0,4.0,4.0,4.0,4.0,0.0,4.0,1.0,4.0,4.0,4.0,4.0
3.0,0.0,4165.641025641027,4199.487179487181,4173.846153846155,4168.71794871795,4183.589743589745,4286.666666666668,4172.307692307694,4171.282051282053,4169.743589743592,4185.128205128207,4159.487179487181,4210.256410256412,4038.9743589743603,4174.871794871797,774.0,2047.0,2048.0,0.0,0.0,4.0,4.0,4.0,4.0,0.0,4.0,4.0,4.0,4.0,0.0,4.0,1.0,4.0,4.0,4.0,4.0
4.0,0.0,4186.153846153848,4215.384615384617,4190.256410256412,4181.0256410256425,4178.46153846154,4288.71794871795,4174.3589743589755,4166.666666666668,4175.897435897437,4185.128205128207,4213.846153846155,4207.692307692309,4114.871794871797,4184.615384615386,0.0,2047.0,2048.0,0.0,0.0,4.0,4.0,4.0,4.0,0.0,4.0,4.0,4.0,4.0,0.0,4.0,1.0,4.0,4.0,4.0,4.0
5.0,0.0,4189.743589743592,4218.46153846154,4189.743589743592,4191.794871794873,4175.384615384617,4298.46153846154,4168.20512820513,4178.97435897436,4185.641025641027,4185.128205128207,4168.20512820513,4214.3589743589755,4053.846153846155,4209.23076923077,764.0,2047.0,2048.0,0.0,0.0,4.0,4.0,4.0,4.0,0.0,4.0,4.0,4.0,4.0,0.0,4.0,1.0,4.0,4.0,4.0,4.0
6.0,0.0,4192.8205128205145,4223.589743589745,4185.641025641027,4189.23076923077,4176.923076923078,4308.71794871795,4166.153846153848,4191.794871794873,4188.71794871795,4185.128205128207,4136.410256410258,4222.051282051283,3984.102564102566,4224.615384615386,801.0,2047.0,2048.0,0.0,0.0,4.0,4.0,4.0,4.0,0.0,4.0,4.0,4.0,4.0,0.0,4.0,1.0,4.0,4.0,4.0,4.0
7.0,0.0,4200.512820512822,4234.871794871797,4192.307692307694,4186.153846153848,4177.435897435899,4322.564102564104,4177.435897435899,4186.153846153848,4186.666666666668,4185.128205128207,4227.692307692309,4211.282051282053,4062.0512820512836,4195.384615384617,801.0,2047.0,2048.0,0.0,0.0,4.0,4.0,4.0,4.0,0.0,4.0,4.0,4.0,4.0,0.0,4.0,1.0,4.0,4.0,4.0,4.0
8.0,0.0,4192.307692307694,4230.769230769232,4191.282051282053,4187.692307692309,4180.512820512822,4334.3589743589755,4182.564102564104,4182.051282051283,4184.615384615386,4185.128205128207,4283.589743589745,4207.179487179489,4130.256410256412,4174.3589743589755,618.0,2047.0,2048.0,0.0,0.0,4.0,4.0,4.0,4.0,0.0,4.0,4.0,4.0,4.0,0.0,4.0,1.0,4.0,4.0,4.0,4.0
9.0,0.0,4191.282051282053,4221.0256410256425,4190.769230769232,4187.179487179489,4180.512820512822,4342.051282051283,4183.589743589745,4191.282051282053,4184.102564102565,4185.128205128207,4212.8205128205145,4219.487179487181,4096.410256410258,4224.102564102565,0.0,2047.0,2048.0,0.0,0.0,4.0,4.0,4.0,4.0,0.0,4.0,4.0,4.0,4.0,0.0,4.0,1.0,4.0,4.0,4.0,4.0
10.0,0.0,4193.846153846155,4222.564102564104,4189.23076923077,4185.128205128207,4181.0256410256425,4342.051282051283,4185.128205128207,4190.769230769232,4186.666666666668,4185.128205128207,4219.487179487181,4218.46153846154,4123.076923076925,4218.97435897436,852.0,2047.0,2048.0,0.0,0.0,4.0,4.0,4.0,4.0,0.0,4.0,4.0,4.0,4.0,0.0,4.0,1.0,4.0,4.0,4.0,4.0
11.0,0.0,4182.051282051283,4223.589743589745,4176.923076923078,4185.641025641027,4181.0256410256425,4333.333333333335,4184.102564102565,4184.102564102565,4185.128205128207,4185.128205128207,4350.256410256412,4202.051282051283,4235.384615384617,4140.000000000002,858.0,2047.0,2048.0,0.0,0.0,4.0,4.0,4.0,4.0,0.0,4.0,4.0,4.0,4.0,0.0,4.0,1.0,4.0,4.0,4.0,4.0
12.0,0.0,4180.000000000002,4221.538461538463,4177.94871794872,4185.128205128207,4178.46153846154,4322.564102564104,4186.153846153848,4191.282051282053,4183.076923076925,4185.128205128207,4389.23076923077,4204.102564102565,4296.410256410258,4155.897435897437,868.0,2047.0,2048.0,0.0,0.0,4.0,4.0,4.0,4.0,0.0,4.0,4.0,4.0,4.0,0.0,4.0,1.0,4.0,4.0,4.0,4.0
13.0,0.0,4190.256410256412,4222.051282051283,4195.897435897437,4186.153846153848,4184.102564102565,4320.512820512822,4187.692307692309,4197.435897435899,4184.102564102565,4185.128205128207,4272.8205128205145,4223.589743589745,4288.71794871795,4233.333333333335,45.0,2047.0,2048.0,0.0,0.0,4.0,4.0,4.0,4.0,0.0,4.0,4.0,4.0,4.0,0.0,4.0,1.0,4.0,4.0,4.0,4.0
14.0,0.0,4182.051282051283,4220.000000000002,4188.71794871795,4186.666666666668,4182.564102564104,4325.641025641027,4185.128205128207,4189.23076923077,4185.128205128207,4185.128205128207,4260.512820512822,4212.8205128205145,4315.897435897437,4190.769230769232,852.0,2047.0,2048.0,0.0,0.0,4.0,4.0,4.0,4.0,0.0,4.0,4.0,4.0,4.0,0.0,4.0,1.0,4.0,4.0,4.0,4.0
15.0,0.0,4166.666666666668,4214.871794871797,4171.794871794873,4181.538461538463,4179.487179487181,4325.128205128207,4181.538461538463,4180.000000000002,4187.692307692309,4185.128205128207,4373.333333333335,4190.769230769232,4369.23076923077,4104.102564102565,858.0,2047.0,2048.0,0.0,0.0,4.0,4.0,4.0,4.0,0.0,4.0,4.0,4.0,4.0,0.0,4.0,1.0,4.0,4.0,4.0,4.0
16.0,0.0,4177.94871794872,4214.3589743589755,4183.589743589745,4180.512820512822,4185.128205128207,4321.538461538463,4182.564102564104,4182.564102564104,4184.615384615386,4185.128205128207,4358.97435897436,4205.641025641027,4374.3589743589755,4148.71794871795,0.0,2047.0,2048.0,0.0,0.0,4.0,4.0,4.0,4.0,0.0,4.0,4.0,4.0,4.0,0.0,4.0,1.0,4.0,4.0,4.0,4.0
17.0,0.0,4193.846153846155,4223.076923076925,4194.3589743589755,4184.615384615386,4184.102564102565,4325.128205128207,4185.128205128207,4188.20512820513,4181.0256410256425,4185.128205128207,4324.615384615386,4219.487179487181,4361.538461538463,4210.256410256412,0.0,2047.0,2048.0,0.0,0.0,4.0,4.0,4.0,4.0,0.0,4.0,4.0,4.0,4.0,0.0,4.0,1.0,4.0,4.0,4.0,4.0
18.0,0.0,4190.769230769232,4230.769230769232,4191.794871794873,4185.128205128207,4183.589743589745,4329.743589743592,4183.589743589745,4189.23076923077,4188.71794871795,4185.128205128207,4426.666666666668,4204.102564102565,4389.743589743592,4162.564102564104,0.0,2047.0,2048.0,0.0,0.0,4.0,4.0,4.0,4.0,0.0,4.0,4.0,4.0,4.0,0.0,4.0,1.0,4.0,4.0,4.0,4.0
19.0,0.0,4190.256410256412,4232.307692307694,4196.923076923078,4190.256410256412,4182.564102564104,4326.666666666668,4183.076923076925,4191.794871794873,4198.97435897436,4185.128205128207,4482.051282051283,4196.923076923078,4422.564102564104,4133.333333333335,0.0,2047.0,2048.0,0.0,0.0,4.0,4.0,4.0,4.0,0.0,4.0,4.0,4.0,4.0,0.0,4.0,1.0,4.0,4.0,4.0,4.0
20.0,0.0,4203.076923076925,4235.897435897437,4207.692307692309,4202.564102564104,4183.589743589745,4325.641025641027,4188.20512820513,4199.487179487181,4202.564102564104,4185.128205128207,4438.46153846154,4211.794871794873,4416.410256410258,4181.538461538463,0.0,2047.0,2048.0,0.0,0.0,4.0,4.0,4.0,4.0,0.0,4.0,4.0,4.0,4.0,0.0,4.0,1.0,4.0,4.0,4.0,4.0
21.0,0.0,4205.641025641027,4235.384615384617,4207.692307692309,4205.641025641027,4184.615384615386,4324.102564102565,4187.692307692309,4206.153846153848,4198.46153846154,4185.128205128207,4424.102564102565,4219.487179487181,4382.564102564104,4200.512820512822,0.0,2047.0,2048.0,0.0,0.0,4.0,4.0,4.0,4.0,0.0,4.0,4.0,4.0,4.0,0.0,4.0,1.0,4.0,4.0,4.0,4.0
22.0,0.0,4187.692307692309,4223.589743589745,4193.333333333335,4193.333333333335,4180.000000000002,4312.307692307694,4183.589743589745,4196.923076923078,4189.743589743592,4185.128205128207,4424.102564102565,4210.769230769232,4369.23076923077,4175.384615384617,0.0,2047.0,2048.0,0.0,0.0,4.0,4.0,4.0,4.0,0.0,4.0,4.0,4.0,4.0,0.0,4.0,1.0,4.0,4.0,4.0,4.0
23.0,0.0,4181.538461538463,4215.897435897437,4187.692307692309,4183.589743589745,4186.153846153848,4306.666666666668,4186.666666666668,4183.589743589745,4183.589743589745,4185.128205128207,4410.256410256412,4209.743589743592,4378.97435897436,4172.8205128205145,0.0,2047.0,2048.0,0.0,0.0,4.0,4.0,4.0,4.0,0.0,4.0,4.0,4.0,4.0,0.0,4.0,1.0,4.0,4.0,4.0,4.0
24.0,0.0,4188.71794871795,4218.97435897436,4192.8205128205145,4186.666666666668,4187.692307692309,4307.692307692309,4187.692307692309,4185.128205128207,4185.641025641027,4185.128205128207,4416.410256410258,4212.8205128205145,4373.846153846155,4177.94871794872,0.0,2047.0,2048.0,0.0,0.0,4.0,4.0,4.0,4.0,0.0,4.0,4.0,4.0,4.0,0.0,4.0,1.0,4.0,4.0,4.0,4.0
25.0,0.0,4185.641025641027,4219.487179487181,4190.769230769232,4189.23076923077,4185.641025641027,4301.538461538463,4178.46153846154,4195.384615384617,4192.307692307694,4185.128205128207,4407.692307692309,4211.794871794873,4340.512820512822,4174.871794871797,0.0,2047.0,2048.0,0.0,0.0,4.0,4.0,4.0,4.0,0.0,4.0,4.0,4.0,4.0,0.0,4.0,1.0,4.0,4.0,4.0,4.0
26.0,0.0,4183.076923076925,4218.97435897436,4191.794871794873,4188.71794871795,4188.20512820513,4295.384615384617,4170.256410256412,4201.0256410256425,4194.871794871797,4185.128205128207,4396.410256410258,4214.3589743589755,4324.102564102565,4181.538461538463,0.0,2047.0,2048.0,0.0,0.0,4.0,4.0,4.0,4.0,0.0,4.0,4.0,4.0,4.0,0.0,4.0,1.0,4.0,4.0,4.0,4.0
27.0,0.0,4185.641025641027,4220.000000000002,4191.282051282053,4188.20512820513,4183.076923076925,4294.871794871797,4172.8205128205145,4200.512820512822,4191.282051282053,4185.128205128207,4397.435897435899,4215.384615384617,4323.589743589745,4186.666666666668,0.0,2047.0,2048.0,0.0,0.0,4.0,4.0,4.0,4.0,0.0,4.0,4.0,4.0,4.0,0.0,4.0,1.0,4.0,4.0,4.0,4.0
28.0,0.0,4176.923076923078,4217.435897435899,4182.051282051283,4185.641025641027,4185.641025641027,4294.3589743589755,4181.538461538463,4197.94871794872,4186.666666666668,4185.128205128207,4371.794871794873,4215.384615384617,4293.333333333335,4177.94871794872,0.0,2047.0,2048.0,0.0,0.0,4.0,4.0,4.0,4.0,0.0,4.0,4.0,4.0,4.0,0.0,4.0,1.0,4.0,4.0,4.0,4.0
29.0,0.0,4172.8205128205145,4216.410256410258,4182.051282051283,4184.615384615386,4188.20512820513,4288.20512820513,4183.076923076925,4195.384615384617,4186.666666666668,4185.128205128207,4345.128205128207,4213.333333333335,4261.0256410256425,4175.384615384617,0.0,2047.0,2048.0,0.0,0.0,4.0,4.0,4.0,4.0,0.0,4.0,4.0,4.0,4.0,0.0,4.0,1.0,4.0,4.0,4.0,4.0
30.0,0.0,4180.000000000002,4217.94871794872,4190.256410256412,4185.641025641027,4185.641025641027,4280.512820512822,4182.051282051283,4197.435897435899,4192.8205128205145,4185.128205128207,4339.487179487181,4211.282051282053,4229.743589743592,4185.128205128207,0.0,2047.0,2048.0,0.0,0.0,4.0,4.0,4.0,4.0,0.0,4.0,4.0,4.0,4.0,0.0,4.0,1.0,4.0,4.0,4.0,4.0
31.0,0.0,4183.076923076925,4220.000000000002,4194.3589743589755,4184.615384615386,4188.71794871795,4277.435897435899,4185.641025641027,4199.487179487181,4194.3589743589755,4185.128205128207,4328.20512820513,4215.897435897437,4155.384615384617,4188.20512820513,0.0,2047.0,2048.0,0.0,0.0,4.0,4.0,4.0,4.0,0.0,4.0,4.0,4.0,4.0,0.0,4.0,1.0,4.0,4.0,4.0,4.0
32.0,0.0,4180.512820512822,4218.46153846154,4190.256410256412,4185.641025641027,4188.20512820513,4276.410256410258,4181.0256410256425,4196.923076923078,4188.71794871795,4185.128205128207,4305.641025641027,4214.871794871797,4069.230769230771,4185.641025641027,0.0,2047.0,2048.0,0.0,0.0,4.0,4.0,4.0,4.0,0.0,4.0,4.0,4.0,4.0,0.0,4.0,1.0,4.0,4.0,4.0,4.0
33.0,0.0,4176.923076923078,4216.410256410258,4185.128205128207,4185.641025641027,4188.71794871795,4271.794871794873,4171.282051282053,4196.923076923078,4188.71794871795,4185.128205128207,4283.589743589745,4211.794871794873,4036.9230769230785,4185.128205128207,0.0,2047.0,2048.0,0.0,0.0,4.0,4.0,4.0,4.0,0.0,4.0,4.0,4.0,4.0,0.0,4.0,1.0,4.0,4.0,4.0,4.0
34.0,0.0,4180.000000000002,4224.615384615386,4187.179487179489,4187.692307692309,4187.179487179489,4273.846153846155,4175.897435897437,4200.512820512822,4199.487179487181,4185.128205128207,4268.20512820513,4214.871794871797,4047.692307692309,4188.71794871795,0.0,2047.0,2048.0,0.0,0.0,4.0,4.0,4.0,4.0,0.0,4.0,4.0,4.0,4.0,0.0,4.0,1.0,4.0,4.0,4.0,4.0
35.0,0.0,4189.743589743592,4232.307692307694,4192.8205128205145,4192.8205128205145,4183.589743589745,4280.512820512822,4183.076923076925,4202.564102564104,4202.051282051283,4185.128205128207,4251.282051282053,4214.3589743589755,4056.9230769230785,4189.743589743592,0.0,2047.0,2048.0,0.0,0.0,4.0,4.0,4.0,4.0,0.0,4.0,4.0,4.0,4.0,0.0,4.0,1.0,4.0,4.0,4.0,4.0
36.0,0.0,4190.769230769232,4225.128205128207,4196.410256410258,4191.282051282053,4187.692307692309,4275.897435897437,4177.435897435899,4197.94871794872,4191.282051282053,4185.128205128207,4229.23076923077,4214.3589743589755,4062.0512820512836,4185.641025641027,0.0,2047.0,2048.0,0.0,0.0,4.0,4.0,4.0,4.0,0.0,4.0,4.0,4.0,4.0,0.0,4.0,1.0,4.0,4.0,4.0,4.0
37.0,0.0,4184.102564102565,4216.923076923078,4191.794871794873,4192.307692307694,4187.179487179489,4274.871794871797,4178.97435897436,4196.923076923078,4191.794871794873,4185.128205128207,4200.512820512822,4214.3589743589755,4077.435897435899,4183.076923076925,0.0,2047.0,2048.0,0.0,0.0,4.0,4.0,4.0,4.0,0.0,4.0,4.0,4.0,4.0,0.0,4.0,1.0,4.0,4.0,4.0,4.0
38.0,0.0,4182.564102564104,4218.97435897436,4190.769230769232,4197.435897435899,4187.179487179489,4281.538461538463,4188.71794871795,4202.564102564104,4197.435897435899,4185.128205128207,4176.923076923078,4214.871794871797,4095.8974358974374,4184.615384615386,0.0,2047.0,2048.0,0.0,0.0,4.0,4.0,4.0,4.0,0.0,4.0,4.0,4.0,4.0,0.0,4.0,1.0,4.0,4.0,4.0,4.0
39.0,0.0,4182.564102564104,4220.000000000002,4193.846153846155,4195.897435897437,4186.666666666668,4273.846153846155,4187.179487179489,4198.46153846154,4192.307692307694,4185.128205128207,4151.282051282053,4215.384615384617,4106.153846153848,4179.487179487181,0.0,2047.0,2048.0,0.0,0.0,4.0,4.0,4.0,4.0,0.0,4.0,4.0,4.0,4.0,0.0,4.0,1.0,4.0,4.0,4.0,4.0
40.0,0.0,4175.384615384617,4212.307692307694,4188.20512820513,4192.8205128205145,4184.615384615386,4261.538461538463,4180.512820512822,4188.71794871795,4182.564102564104,4185.128205128207,4045.1282051282064,4215.384615384617,4115.384615384617,4168.20512820513,0.0,2047.0,2048.0,0.0,0.0,4.0,4.0,4.0,4.0,0.0,4.0,4.0,4.0,4.0,0.0,4.0,1.0,4.0,4.0,4.0,4.0
41.0,0.0,4173.846153846155,4207.179487179489,4188.71794871795,4197.435897435899,4186.666666666668,4260.512820512822,4185.128205128207,4192.8205128205145,4183.589743589745,4185.128205128207,3878.46153846154,4216.923076923078,4135.384615384617,4166.153846153848,0.0,2047.0,2048.0,0.0,0.0,4.0,4.0,4.0,4.0,0.0,4.0,4.0,4.0,4.0,0.0,4.0,1.0,4.0,4.0,4.0,4.0
42.0,0.0,4180.000000000002,4207.692307692309,4192.8205128205145,4204.102564102565,4184.615384615386,4255.897435897437,4185.641025641027,4206.666666666668,4198.46153846154,4185.128205128207,3768.71794871795,4214.871794871797,4151.282051282053,4180.512820512822,0.0,2047.0,2048.0,0.0,0.0,4.0,4.0,4.0,4.0,0.0,4.0,4.0,4.0,4.0,0.0,4.0,1.0,4.0,4.0,4.0,4.0
43.0,0.0,4182.564102564104,4211.282051282053,4190.256410256412,4204.102564102565,4187.179487179489,4245.128205128207,4174.3589743589755,4204.102564102565,4197.94871794872,4185.128205128207,3717.9487179487196,4215.384615384617,4162.051282051283,4191.282051282053,0.0,2047.0,2048.0,0.0,0.0,4.0,4.0,4.0,4.0,0.0,4.0,4.0,4.0,4.0,0.0,4.0,1.0,4.0,4.0,4.0,4.0
44.0,0.0,4181.0256410256425,4210.769230769232,4188.20512820513,4198.46153846154,4188.20512820513,4245.128205128207,4164.102564102565,4182.051282051283,4184.102564102565,4185.128205128207,3679.487179487181,4216.923076923078,4193.846153846155,4179.487179487181,0.0,2047.0,2048.0,0.0,0.0,4.0,4.0,4.0,4.0,0.0,4.0,4.0,4.0,4.0,0.0,4.0,1.0,4.0,4.0,4.0,4.0
45.0,0.0,4180.512820512822,4206.666666666668,4189.743589743592,4193.333333333335,4182.051282051283,4246.666666666668,4169.23076923077,4169.23076923077,4182.051282051283,4185.128205128207,3667.6923076923094,4212.307692307694,4223.589743589745,4170.769230769232,0.0,2047.0,2048.0,0.0,0.0,4.0,4.0,4.0,4.0,0.0,4.0,4.0,4.0,4.0,0.0,4.0,1.0,4.0,4.0,4.0,4.0
46.0,0.0,4180.512820512822,4206.153846153848,4193.333333333335,4194.871794871797,4187.692307692309,4238.46153846154,4170.769230769232,4170.256410256412,4181.538461538463,4185.128205128207,3658.46153846154,4214.871794871797,4221.538461538463,4181.538461538463,0.0,2047.0,2048.0,0.0,0.0,4.0,4.0,4.0,4.0,0.0,4.0,4.0,4.0,4.0,0.0,4.0,1.0,4.0,4.0,4.0,4.0
47.0,0.0,4172.307692307694,4200.000000000002,4185.128205128207,4187.692307692309,4187.179487179489,4230.769230769232,4158.46153846154,4169.23076923077,4171.282051282053,4185.128205128207,3628.71794871795,4217.94871794872,4213.333333333335,4177.435897435899,0.0,2047.0,2048.0,0.0,0.0,4.0,4.0,4.0,4.0,0.0,4.0,4.0,4.0,4.0,0.0,4.0,1.0,4.0,4.0,4.0,4.0
48.0,0.0,4160.000000000002,4185.641025641027,4171.794871794873,4170.769230769232,4183.076923076925,4232.307692307694,4155.897435897437,4169.23076923077,4166.666666666668,4185.128205128207,3639.487179487181,4212.8205128205145,4221.538461538463,4150.769230769232,0.0,2047.0,2048.0,0.0,0.0,4.0,4.0,4.0,4.0,0.0,4.0,4.0,4.0,4.0,0.0,4.0,1.0,4.0,4.0,4.0,4.0
49.0,0.0,4159.487179487181,4180.512820512822,4173.333333333335,4170.256410256412,4186.666666666668,4231.794871794873,4165.128205128207,4180.512820512822,4171.794871794873,4185.128205128207,3642.564102564104,4213.333333333335,4224.102564102565,4156.923076923078,0.0,2047.0,2048.0,0.0,0.0,4.0,4.0,4.0,4.0,0.0,4.0,4.0,4.0,4.0,0.0,4.0,1.0,4.0,4.0,4.0,4.0
50.0,0.0,4171.282051282053,4200.000000000002,4188.71794871795,4182.564102564104,4187.692307692309,4225.128205128207,4170.769230769232,4190.256410256412,4177.94871794872,4185.128205128207,3605.641025641027,4218.97435897436,4206.666666666668,4200.000000000002,0.0,2047.0,2048.0,0.0,0.0,4.0,4.0,4.0,4.0,0.0,4.0,4.0,4.0,4.0,0.0,4.0,1.0,4.0,4.0,4.0,4.0
51.0,0.0,4174.871794871797,4208.71794871795,4195.384615384617,4187.179487179489,4189.743589743592,4223.076923076925,4170.256410256412,4185.128205128207,4178.97435897436,4185.128205128207,3605.641025641027,4218.97435897436,4201.538461538463,4200.512820512822,0.0,2047.0,2048.0,0.0,0.0,4.0,4.0,4.0,4.0,0.0,4.0,4.0,4.0,4.0,0.0,4.0,1.0,4.0,4.0,4.0,4.0
52.0,0.0,4163.589743589745,4187.692307692309,4180.000000000002,4181.538461538463,4185.641025641027,4228.20512820513,4166.153846153848,4179.487179487181,4175.384615384617,4185.128205128207,3624.615384615386,4209.23076923077,4220.512820512822,4153.846153846155,0.0,2047.0,2048.0,0.0,0.0,4.0,4.0,4.0,4.0,0.0,4.0,4.0,4.0,4.0,0.0,4.0,1.0,4.0,4.0,4.0,4.0
53.0,0.0,4162.564102564104,4187.179487179489,4173.333333333335,4182.564102564104,4184.615384615386,4231.794871794873,4171.794871794873,4189.743589743592,4180.000000000002,4185.128205128207,3631.2820512820526,4209.743589743592,4224.615384615386,4157.435897435899,0.0,2047.0,2048.0,0.0,0.0,4.0,4.0,4.0,4.0,0.0,4.0,4.0,4.0,4.0,0.0,4.0,1.0,4.0,4.0,4.0,4.0
54.0,0.0,4172.8205128205145,4207.179487179489,4185.641025641027,4187.692307692309,4190.256410256412,4229.23076923077,4183.589743589745,4197.435897435899,4189.743589743592,4185.128205128207,3669.743589743591,4212.8205128205145,4204.615384615386,4184.615384615386,0.0,2047.0,2048.0,0.0,0.0,4.0,4.0,4.0,4.0,0.0,4.0,4.0,4.0,4.0,0.0,4.0,1.0,4.0,4.0,4.0,4.0
55.0,0.0,4170.769230769232,4201.538461538463,4182.564102564104,4181.538461538463,4188.20512820513,4222.051282051283,4173.846153846155,4189.23076923077,4191.282051282053,4185.128205128207,3706.6666666666683,4205.128205128207,4175.384615384617,4172.307692307694,0.0,2047.0,2048.0,0.0,0.0,4.0,4.0,4.0,4.0,0.0,4.0,4.0,4.0,4.0,0.0,4.0,1.0,4.0,4.0,4.0,4.0
56.0,0.0,4163.589743589745,4192.307692307694,4172.8205128205145,4170.769230769232,4189.23076923077,4216.410256410258,4156.923076923078,4177.94871794872,4182.564102564104,4185.128205128207,3719.487179487181,4210.256410256412,4142.564102564104,4161.538461538463,0.0,2047.0,2048.0,0.0,0.0,4.0,4.0,4.0,4.0,0.0,4.0,4.0,4.0,4.0,0.0,4.0,1.0,4.0,4.0,4.0,4.0
57.0,0.0,4158.97435897436,4202.051282051283,4174.871794871797,4167.179487179489,4187.692307692309,4215.384615384617,4161.0256410256425,4172.307692307694,4172.8205128205145,4185.128205128207,3804.615384615386,4213.333333333335,4138.46153846154,4155.384615384617,0.0,2047.0,2048.0,0.0,0.0,4.0,4.0,4.0,4.0,0.0,4.0,4.0,4.0,4.0,0.0,4.0,1.0,4.0,4.0,4.0,4.0
58.0,0.0,4161.0256410256425,4205.128205128207,4174.871794871797,4170.769230769232,4188.20512820513,4231.282051282053,4171.794871794873,4175.384615384617,4176.410256410258,4185.128205128207,3897.9487179487196,4206.666666666668,4140.512820512822,4158.46153846154,0.0,2047.0,2048.0,0.0,0.0,4.0,4.0,4.0,4.0,0.0,4.0,4.0,4.0,4.0,0.0,4.0,1.0,4.0,4.0,4.0,4.0
59.0,0.0,4170.256410256412,4200.512820512822,4175.897435897437,4183.076923076925,4191.282051282053,4262.564102564104,4174.871794871797,4186.666666666668,4187.179487179489,4185.128205128207,3944.102564102566,4216.923076923078,4104.615384615386,4190.769230769232,0.0,2047.0,2048.0,0.0,0.0,4.0,4.0,4.0,4.0,0.0,4.0,4.0,4.0,4.0,0.0,4.0,1.0,4.0,4.0,4.0,4.0
60.0,0.0,4172.307692307694,4205.128205128207,4180.512820512822,4188.20512820513,4188.20512820513,4272.307692307694,4173.333333333335,4190.256410256412,4177.435897435899,4185.128205128207,3995.8974358974374,4226.666666666668,4052.8205128205145,4210.769230769232,0.0,2047.0,2048.0,0.0,0.0,4.0,4.0,4.0,4.0,0.0,4.0,4.0,4.0,4.0,0.0,4.0,1.0,4.0,4.0,4.0,4.0
61.0,0.0,4164.615384615386,4204.102564102565,4180.000000000002,4173.846153846155,4190.256410256412,4248.20512820513,4167.179487179489,4174.3589743589755,4162.051282051283,4185.128205128207,4078.46153846154,4216.410256410258,4031.2820512820526,4183.076923076925,0.0,2047.0,2048.0,0.0,0.0,4.0,4.0,4.0,4.0,0.0,4.0,4.0,4.0,4.0,0.0,4.0,1.0,4.0,4.0,4.0,4.0
62.0,0.0,4165.128205128207,4201.0256410256425,4176.410256410258,4166.666666666668,4191.282051282053,4228.20512820513,4166.153846153848,4164.102564102565,4168.20512820513,4185.128205128207,4181.0256410256425,4202.564102564104,4079.487179487181,4145.641025641027,0.0,2047.0,2048.0,0.0,0.0,4.0,4.0,4.0,4.0,0.0,4.0,4.0,4.0,4.0,0.0,4.0,1.0,4.0,4.0,4.0,4.0
63.0,0.0,4168.20512820513,4201.538461538463,4176.923076923078,4172.8205128205145,4189.23076923077,4225.128205128207,4174.3589743589755,4175.384615384617,4171.794871794873,4185.128205128207,4174.3589743589755,4206.666666666668,4101.0256410256425,4154.871794871797,0.0,2047.0,2048.0,0.0,0.0,4.0,4.0,4.0,4.0,0.0,4.0,4.0,4.0,4.0,0.0,4.0,1.0,4.0,4.0,4.0,4.0
64.0,0.0,4157.94871794872,4189.743589743592,4174.871794871797,4167.179487179489,4191.282051282053,4229.23076923077,4174.871794871797,4188.71794871795,4172.8205128205145,4185.128205128207,4113.846153846155,4216.923076923078,4016.9230769230785,4181.538461538463,664.0,2047.0,2048.0,0.0,0.0,4.0,4.0,4.0,4.0,0.0,4.0,4.0,4.0,4.0,0.0,4.0,1.0,4.0,4.0,4.0,4.0
65.0,0.0,4154.871794871797,4180.000000000002,4164.615384615386,4156.410256410258,4188.20512820513,4241.538461538463,4171.794871794873,4188.20512820513,4184.615384615386,4185.128205128207,4150.769230769232,4209.23076923077,3984.615384615386,4170.769230769232,827.0,2047.0,2048.0,0.0,0.0,4.0,4.0,4.0,4.0,0.0,4.0,4.0,4.0,4.0,0.0,4.0,1.0,4.0,4.0,4.0,4.0
66.0,0.0,4163.589743589745,4190.256410256412,4169.23076923077,4152.8205128205145,4189.743589743592,4247.179487179489,4170.256410256412,4183.589743589745,4182.564102564104,4185.128205128207,4198.97435897436,4207.179487179489,4074.358974358976,4153.846153846155,797.0,2047.0,2048.0,0.0,0.0,4.0,4.0,4.0,4.0,0.0,4.0,4.0,4.0,4.0,0.0,4.0,1.0,4.0,4.0,4.0,4.0
67.0,0.0,4164.102564102565,4197.94871794872,4178.46153846154,4153.846153846155,4190.769230769232,4246.153846153848,4168.20512820513,4180.512820512822,4170.769230769232,4185.128205128207,4221.0256410256425,4212.8205128205145,4158.46153846154,4153.333333333335,774.0,2047.0,2048.0,0.0,0.0,4.0,4.0,4.0,4.0,0.0,4.0,4.0,4.0,4.0,0.0,4.0,1.0,4.0,4.0,4.0,4.0
68.0,0.0,4152.8205128205145,4190.256410256412,4166.666666666668,4153.846153846155,4187.692307692309,4255.384615384617,4166.666666666668,4169.23076923077,4168.71794871795,4185.128205128207,4293.846153846155,4201.538461538463,4184.102564102565,4137.94871794872,0.0,2047.0,2048.0,0.0,0.0,4.0,4.0,4.0,4.0,0.0,4.0,4.0,4.0,4.0,0.0,4.0,1.0,4.0,4.0,4.0,4.0
69.0,0.0,4152.307692307694,4186.666666666668,4160.512820512822,4155.384615384617,4189.23076923077,4264.102564102565,4164.615384615386,4163.076923076925,4167.179487179489,4185.128205128207,4310.256410256412,4200.512820512822,4196.923076923078,4140.000000000002,764.0,2047.0,2048.0,0.0,0.0,4.0,4.0,4.0,4.0,0.0,4.0,4.0,4.0,4.0,0.0,4.0,1.0,4.0,4.0,4.0,4.0
70.0,0.0,4164.102564102565,4192.307692307694,4169.743589743592,4160.000000000002,4185.128205128207,4264.102564102565,4170.256410256412,4172.307692307694,4167.692307692309,4185.128205128207,4239.487179487181,4211.282051282053,4220.512820512822,4169.23076923077,801.0,2047.0,2048.0,0.0,0.0,4.0,4.0,4.0,4.0,0.0,4.0,4.0,4.0,4.0,0.0,4.0,1.0,4.0,4.0,4.0,4.0
71.0,0.0,4170.769230769232,4203.076923076925,4176.923076923078,4169.23076923077,4185.641025641027,4273.846153846155,4184.102564102565,4181.0256410256425,4181.0256410256425,4185.128205128207,4268.71794871795,4207.692307692309,4253.333333333335,4170.256410256412,795.0,2047.0,2048.0,0.0,0.0,4.0,4.0,4.0,4.0,0.0,4.0,4.0,4.0,4.0,0.0,4.0,1.0,4.0,4.0,4.0,4.0
72.0,0.0,4174.3589743589755,4212.307692307694,4182.051282051283,4175.897435897437,4186.153846153848,4282.051282051283,4188.71794871795,4183.076923076925,4190.256410256412,4185.128205128207,4312.8205128205145,4205.128205128207,4268.71794871795,4168.71794871795,618.0,2047.0,2048.0,0.0,0.0,4.0,4.0,4.0,4.0,0.0,4.0,4.0,4.0,4.0,0.0,4.0,1.0,4.0,4.0,4.0,4.0
73.0,0.0,4171.794871794873,4210.769230769232,4180.512820512822,4172.307692307694,4183.589743589745,4273.846153846155,4182.051282051283,4184.615384615386,4185.641025641027,4185.128205128207,4297.435897435899,4208.20512820513,4285.128205128207,4169.23076923077,0.0,2047.0,2048.0,0.0,0.0,4.0,4.0,4.0,4.0,0.0,4.0,4.0,4.0,4.0,0.0,4.0,1.0,4.0,4.0,4.0,4.0
74.0,0.0,4165.128205128207,4209.743589743592,4174.871794871797,4170.769230769232,4188.71794871795,4273.333333333335,4184.615384615386,4188.71794871795,4183.076923076925,4185.128205128207,4335.897435897437,4205.128205128207,4331.794871794873,4137.94871794872,845.0,2047.0,2048.0,0.0,0.0,4.0,4.0,4.0,4.0,0.0,4.0,4.0,4.0,4.0,0.0,4.0,1.0,4.0,4.0,4.0,4.0
75.0,0.0,4164.615384615386,4209.23076923077,4171.282051282053,4169.23076923077,4186.153846153848,4281.538461538463,4184.615384615386,4185.128205128207,4183.076923076925,4185.128205128207,4362.564102564104,4200.000000000002,4332.307692307694,4133.333333333335,846.0,2047.0,2048.0,0.0,0.0,4.0,4.0,4.0,4.0,0.0,4.0,4.0,4.0,4.0,0.0,4.0,1.0,4.0,4.0,4.0,4.0
76.0,0.0,4160.512820512822,4202.051282051283,4171.282051282053,4158.46153846154,4185.641025641027,4277.435897435899,4170.769230769232,4173.333333333335,4181.538461538463,4185.128205128207,4323.589743589745,4205.128205128207,4288.71794871795,4154.3589743589755,836.0,2047.0,2048.0,0.0,0.0,4.0,4.0,4.0,4.0,0.0,4.0,4.0,4.0,4.0,0.0,4.0,1.0,4.0,4.0,4.0,4.0
77.0,0.0,4160.512820512822,4198.97435897436,4174.3589743589755,4157.94871794872,4188.71794871795,4273.333333333335,4171.794871794873,4174.871794871797,4180.512820512822,4185.128205128207,4304.615384615386,4210.769230769232,4275.897435897437,4157.94871794872,45.0,2047.0,2048.0,0.0,0.0,4.0,4.0,4.0,4.0,0.0,4.0,4.0,4.0,4.0,0.0,4.0,1.0,4.0,4.0,4.0,4.0
78.0,0.0,4162.051282051283,4199.487179487181,4175.897435897437,4166.666666666668,4186.153846153848,4277.94871794872,4189.23076923077,4184.615384615386,4176.923076923078,4185.128205128207,4331.794871794873,4205.128205128207,4279.487179487181,4158.97435897436,845.0,2047.0,2048.0,0.0,0.0,4.0,4.0,4.0,4.0,0.0,4.0,4.0,4.0,4.0,0.0,4.0,1.0,4.0,4.0,4.0,4.0
79.0,0.0,4158.46153846154,4198.46153846154,4176.923076923078,4169.23076923077,4189.23076923077,4280.512820512822,4189.743589743592,4182.564102564104,4172.307692307694,4185.128205128207,4341.538461538463,4204.102564102565,4278.46153846154,4157.94871794872,846.0,2047.0,2048.0,0.0,0.0,4.0,4.0,4.0,4.0,0.0,4.0,4.0,4.0,4.0,0.0,4.0,1.0,4.0,4.0,4.0,4.0
80.0,0.0,4161.538461538463,4205.641025641027,4177.94871794872,4175.384615384617,4189.23076923077,4276.410256410258,4183.076923076925,4182.051282051283,4171.794871794873,4185.128205128207,4328.71794871795,4205.128205128207,4267.179487179489,4164.102564102565,836.0,2047.0,2048.0,0.0,0.0,4.0,4.0,4.0,4.0,0.0,4.0,4.0,4.0,4.0,0.0,4.0,1.0,4.0,4.0,4.0,4.0
81.0,0.0,4171.282051282053,4211.794871794873,4179.487179487181,4181.538461538463,4189.743589743592,4267.692307692309,4181.538461538463,4182.051282051283,4171.282051282053,4185.128205128207,4325.128205128207,4203.589743589745,4246.153846153848,4171.794871794873,45.0,2047.0,2048.0,0.0,0.0,4.0,4.0,4.0,4.0,0.0,4.0,4.0,4.0,4.0,0.0,4.0,1.0,4.0,4.0,4.0,4.0
82.0,0.0,4169.23076923077,4206.153846153848,4179.487179487181,4173.846153846155,4191.282051282053,4253.846153846155,4171.282051282053,4174.3589743589755,4169.23076923077,4185.128205128207,4314.871794871797,4206.666666666668,4220.000000000002,4166.153846153848,845.0,2047.0,2048.0,0.0,0.0,4.0,4.0,4.0,4.0,0.0,4.0,4.0,4.0,4.0,0.0,4.0,1.0,4.0,4.0,4.0,4.0
83.0,0.0,4162.564102564104,4208.20512820513,4176.923076923078,4168.71794871795,4186.666666666668,4244.615384615386,4161.538461538463,4171.794871794873,4170.256410256412,4185.128205128207,4298.46153846154,4209.23076923077,4208.71794871795,4168.71794871795,846.0,2047.0,2048.0,0.0,0.0,4.0,4.0,4.0,4.0,0.0,4.0,4.0,4.0,4.0,0.0,4.0,1.0,4.0,4.0,4.0,4.0
84.0,0.0,4170.769230769232,4217.94871794872,4180.512820512822,4174.3589743589755,4187.179487179489,4250.769230769232,4169.743589743592,4177.94871794872,4173.333333333335,4185.128205128207,4294.3589743589755,4209.743589743592,4204.615384615386,4180.512820512822,836.0,2047.0,2048.0,0.0,0.0,4.0,4.0,4.0,4.0,0.0,4.0,4.0,4.0,4.0,0.0,4.0,1.0,4.0,4.0,4.0,4.0
85.0,0.0,4170.769230769232,4213.846153846155,4180.512820512822,4173.846153846155,4185.641025641027,4251.282051282053,4175.384615384617,4177.435897435899,4172.307692307694,4185.128205128207,4288.20512820513,4206.153846153848,4146.666666666668,4178.97435897436,45.0,2047.0,2048.0,0.0,0.0,4.0,4.0,4.0,4.0,0.0,4.0,4.0,4.0,4.0,0.0,4.0,1.0,4.0,4.0,4.0,4.0
86.0,0.0,4154.871794871797,4198.46153846154,4168.20512820513,4165.128205128207,4187.179487179489,4234.871794871797,4168.71794871795,4169.23076923077,4164.615384615386,4185.128205128207,4265.128205128207,4202.564102564104,4041.5384615384633,4165.641025641027,845.0,2047.0,2048.0,0.0,0.0,4.0,4.0,4.0,4.0,0.0,4.0,4.0,4.0,4.0,0.0,4.0,1.0,4.0,4.0,4.0,4.0
87.0,0.0,4154.3589743589755,4200.512820512822,4172.307692307694,4166.153846153848,4192.307692307694,4236.410256410258,4175.897435897437,4176.410256410258,4167.692307692309,4185.128205128207,4260.000000000002,4208.20512820513,3992.3076923076937,4171.282051282053,846.0,2047.0,2048.0,0.0,0.0,4.0,4.0,4.0,4.0,0.0,4.0,4.0,4.0,4.0,0.0,4.0,1.0,4.0,4.0,4.0,4.0
88.0,0.0,4170.769230769232,4216.923076923078,4188.71794871795,4181.0256410256425,4188.71794871795,4250.256410256412,4190.256410256412,4201.538461538463,4186.666666666668,4185.128205128207,4268.71794871795,4212.307692307694,4004.615384615386,4189.23076923077,836.0,2047.0,2048.0,0.0,0.0,4.0,4.0,4.0,4.0,0.0,4.0,4.0,4.0,4.0,0.0,4.0,1.0,4.0,4.0,4.0,4.0
89.0,0.0,4177.94871794872,4216.410256410258,4189.23076923077,4184.615384615386,4188.71794871795,4242.051282051283,4183.076923076925,4201.538461538463,4188.20512820513,4185.128205128207,4251.794871794873,4211.794871794873,4002.564102564104,4189.743589743592,45.0,2047.0,2048.0,0.0,0.0,4.0,4.0,4.0,4.0,0.0,4.0,4.0,4.0,4.0,0.0,4.0,1.0,4.0,4.0,4.0,4.0
90.0,0.0,4168.20512820513,4199.487179487181,4176.410256410258,4172.307692307694,4188.20512820513,4226.666666666668,4172.307692307694,4176.923076923078,4169.743589743592,4185.128205128207,4223.076923076925,4208.20512820513,3992.3076923076937,4178.46153846154,845.0,2047.0,2048.0,0.0,0.0,4.0,4.0,4.0,4.0,0.0,4.0,4.0,4.0,4.0,0.0,4.0,1.0,4.0,4.0,4.0,4.0
91.0,0.0,4164.615384615386,4198.97435897436,4175.384615384617,4174.3589743589755,4187.179487179489,4232.307692307694,4182.051282051283,4172.8205128205145,4169.743589743592,4185.128205128207,4214.3589743589755,4208.71794871795,4008.2051282051298,4171.282051282053,846.0,2047.0,2048.0,0.0,0.0,4.0,4.0,4.0,4.0,0.0,4.0,4.0,4.0,4.0,0.0,4.0,1.0,4.0,4.0,4.0,4.0
92.0,0.0,4167.692307692309,4207.179487179489,4183.589743589745,4185.128205128207,4187.692307692309,4238.97435897436,4191.282051282053,4186.666666666668,4185.641025641027,4185.128205128207,4212.8205128205145,4213.846153846155,4034.8717948717963,4171.794871794873,836.0,2047.0,2048.0,0.0,0.0,4.0,4.0,4.0,4.0,0.0,4.0,4.0,4.0,4.0,0.0,4.0,1.0,4.0,4.0,4.0,4.0
93.0,0.0,4161.538461538463,4197.94871794872,4178.46153846154,4179.487179487181,4185.641025641027,4224.102564102565,4184.102564102565,4189.23076923077,4187.179487179489,4185.128205128207,4197.94871794872,4210.769230769232,4047.1794871794887,4173.333333333335,45.0,2047.0,2048.0,0.0,0.0,4.0,4.0,4.0,4.0,0.0,4.0,4.0,4.0,4.0,0.0,4.0,1.0,4.0,4.0,4.0,4.0
94.0,0.0,4149.23076923077,4182.051282051283,4170.256410256412,4167.692307692309,4191.794871794873,4205.128205128207,4182.051282051283,4182.564102564104,4175.384615384617,4185.128205128207,4153.846153846155,4207.692307692309,4043.589743589745,4161.0256410256425,845.0,2047.0,2048.0,0.0,0.0,4.0,4.0,4.0,4.0,0.0,4.0,4.0,4.0,4.0,0.0,4.0,1.0,4.0,4.0,4.0,4.0
95.0,0.0,4150.769230769232,4181.538461538463,4172.8205128205145,4169.23076923077,4190.769230769232,4198.46153846154,4180.000000000002,4173.333333333335,4169.23076923077,4185.128205128207,4131.282051282053,4211.282051282053,4057.435897435899,4150.256410256412,846.0,2047.0,2048.0,0.0,0.0,4.0,4.0,4.0,4.0,0.0,4.0,4.0,4.0,4.0,0.0,4.0,1.0,4.0,4.0,4.0,4.0
96.0,0.0,4157.94871794872,4187.692307692309,4175.897435897437,4178.46153846154,4187.179487179489,4196.923076923078,4173.333333333335,4167.179487179489,4170.769230769232,4185.128205128207,4116.410256410258,4211.282051282053,4092.8205128205145,4157.94871794872,836.0,2047.0,2048.0,0.0,0.0,4.0,4.0,4.0,4.0,0.0,4.0,4.0,4.0,4.0,0.0,4.0,1.0,4.0,4.0,4.0,4.0
97.0,0.0,4155.897435897437,4188.20512820513,4175.897435897437,4183.589743589745,4190.769230769232,4187.692307692309,4171.794871794873,4175.897435897437,4174.3589743589755,4185.128205128207,3973.333333333335,4212.8205128205145,4107.179487179489,4169.23076923077,45.0,2047.0,2048.0,0.0,0.0,4.0,4.0,4.0,4.0,0.0,4.0,4.0,4.0,4.0,0.0,4.0,1.0,4.0,4.0,4.0,4.0
98.0,0.0,4157.94871794872,4186.153846153848,4174.3589743589755,4183.076923076925,4186.666666666668,4180.512820512822,4173.846153846155,4186.153846153848,4171.794871794873,4185.128205128207,3765.1282051282064,4214.871794871797,4106.153846153848,4180.512820512822,845.0,2047.0,2048.0,0.0,0.0,4.0,4.0,4.0,4.0,0.0,4.0,4.0,4.0,4.0,0.0,4.0,1.0,4.0,4.0,4.0,4.0
99.0,0.0,4165.128205128207,4190.256410256412,4177.94871794872,4183.076923076925,4187.179487179489,4185.641025641027,4175.384615384617,4178.97435897436,4167.692307692309,4185.128205128207,3713.846153846155,4211.282051282053,4146.153846153848,4180.512820512822,846.0,2047.0,2048.0,0.0,0.0,4.0,4.0,4.0,4.0,0.0,4.0,4.0,4.0,4.0,0.0,4.0,1.0,4.0,4.0,4.0,4.0
100.0,0.0,4166.153846153848,4193.333333333335,4182.051282051283,4185.641025641027,4187.179487179489,4185.641025641027,4173.333333333335,4173.846153846155,4172.307692307694,4185.128205128207,3716.9230769230785,4210.769230769232,4172.307692307694,4177.94871794872,836.0,2047.0,2048.0,0.0,0.0,4.0,4.0,4.0,4.0,0.0,4.0,4.0,4.0,4.0,0.0,4.0,1.0,4.0,4.0,4.0,4.0
101.0,0.0,4156.410256410258,4187.179487179489,4177.435897435899,4183.076923076925,4184.102564102565,4180.000000000002,4169.23076923077,4180.512820512822,4173.846153846155,4185.128205128207,3622.0512820512836,4217.435897435899,4134.3589743589755,4181.0256410256425,45.0,2047.0,2048.0,0.0,0.0,4.0,4.0,4.0,4.0,0.0,4.0,4.0,4.0,4.0,0.0,4.0,1.0,4.0,4.0,4.0,4.0
102.0,0.0,4152.307692307694,4187.692307692309,4174.3589743589755,4178.97435897436,4186.666666666668,4183.589743589745,4172.8205128205145,4174.871794871797,4166.666666666668,4185.128205128207,3624.615384615386,4211.794871794873,4143.589743589745,4161.0256410256425,845.0,2047.0,2048.0,0.0,0.0,4.0,4.0,4.0,4.0,0.0,4.0,4.0,4.0,4.0,0.0,4.0,1.0,4.0,4.0,4.0,4.0
103.0,0.0,4165.128205128207,4199.487179487181,4181.0256410256425,4187.179487179489,4186.153846153848,4188.71794871795,4183.589743589745,4164.615384615386,4167.179487179489,4185.128205128207,3722.564102564104,4198.97435897436,4182.051282051283,4157.94871794872,846.0,2047.0,2048.0,0.0,0.0,4.0,4.0,4.0,4.0,0.0,4.0,4.0,4.0,4.0,0.0,4.0,1.0,4.0,4.0,4.0,4.0
104.0,0.0,4173.333333333335,4203.076923076925,4186.666666666668,4195.897435897437,4187.179487179489,4187.179487179489,4188.20512820513,4179.487179487181,4175.897435897437,4185.128205128207,3711.7948717948734,4208.71794871795,4156.410256410258,4189.743589743592,836.0,2047.0,2048.0,0.0,0.0,4.0,4.0,4.0,4.0,0.0,4.0,4.0,4.0,4.0,0.0,4.0,1.0,4.0,4.0,4.0,4.0
105.0,0.0,4163.076923076925,4198.46153846154,4180.000000000002,4190.769230769232,4187.179487179489,4183.076923076925,4185.128205128207,4188.71794871795,4175.384615384617,4185.128205128207,3678.46153846154,4216.923076923078,4135.897435897437,4181.0256410256425,45.0,2047.0,2048.0,0.0,0.0,4.0,4.0,4.0,4.0,0.0,4.0,4.0,4.0,4.0,0.0,4.0,1.0,4.0,4.0,4.0,4.0
106.0,0.0,4157.435897435899,4201.0256410256425,4171.794871794873,4177.94871794872,4185.641025641027,4178.97435897436,4181.0256410256425,4172.307692307694,4170.769230769232,4185.128205128207,3751.7948717948734,4203.076923076925,4158.97435897436,4146.666666666668,845.0,2047.0,2048.0,0.0,0.0,4.0,4.0,4.0,4.0,0.0,4.0,4.0,4.0,4.0,0.0,4.0,1.0,4.0,4.0,4.0,4.0
107.0,0.0,4166.153846153848,4203.076923076925,4179.487179487181,4175.897435897437,4188.20512820513,4179.487179487181,4177.435897435899,4168.71794871795,4176.923076923078,4185.128205128207,3837.9487179487196,4204.102564102565,4143.589743589745,4165.128205128207,846.0,2047.0,2048.0,0.0,0.0,4.0,4.0,4.0,4.0,0.0,4.0,4.0,4.0,4.0,0.0,4.0,1.0,4.0,4.0,4.0,4.0
108.0,0.0,4169.743589743592,4201.0256410256425,4184.615384615386,4180.512820512822,4185.641025641027,4182.564102564104,4181.0256410256425,4177.435897435899,4186.666666666668,4185.128205128207,3892.8205128205145,4210.769230769232,4111.794871794873,4180.000000000002,836.0,2047.0,2048.0,0.0,0.0,4.0,4.0,4.0,4.0,0.0,4.0,4.0,4.0,4.0,0.0,4.0,1.0,4.0,4.0,4.0,4.0
109.0,0.0,4161.538461538463,4201.0256410256425,4180.512820512822,4182.051282051283,4188.71794871795,4190.256410256412,4183.589743589745,4172.307692307694,4182.564102564104,4185.128205128207,3915.8974358974374,4208.20512820513,4116.923076923078,4162.564102564104,45.0,2047.0,2048.0,0.0,0.0,4.0,4.0,4.0,4.0,0.0,4.0,4.0,4.0,4.0,0.0,4.0,1.0,4.0,4.0,4.0,4.0
110.0,0.0,4163.076923076925,4200.512820512822,4182.051282051283,4183.589743589745,4190.769230769232,4209.23076923077,4180.512820512822,4173.846153846155,4169.23076923077,4185.128205128207,3871.2820512820526,4215.384615384617,4080.512820512822,4190.256410256412,845.0,2047.0,2048.0,0.0,0.0,4.0,4.0,4.0,4.0,0.0,4.0,4.0,4.0,4.0,0.0,4.0,1.0,4.0,4.0,4.0,4.0
111.0,0.0,4166.666666666668,4204.102564102565,4180.512820512822,4185.641025641027,4187.179487179489,4216.923076923078,4185.641025641027,4187.692307692309,4172.307692307694,4185.128205128207,3903.589743589745,4220.512820512822,4028.71794871795,4211.282051282053,846.0,2047.0,2048.0,0.0,0.0,4.0,4.0,4.0,4.0,0.0,4.0,4.0,4.0,4.0,0.0,4.0,1.0,4.0,4.0,4.0,4.0
112.0,0.0,4169.23076923077,4203.589743589745,4181.538461538463,4183.076923076925,4191.282051282053,4195.384615384617,4186.666666666668,4184.615384615386,4185.641025641027,4185.128205128207,4052.3076923076937,4211.794871794873,4052.8205128205145,4173.846153846155,836.0,2047.0,2048.0,0.0,0.0,4.0,4.0,4.0,4.0,0.0,4.0,4.0,4.0,4.0,0.0,4.0,1.0,4.0,4.0,4.0,4.0
113.0,0.0,4176.410256410258,4200.512820512822,4184.102564102565,4175.384615384617,4188.20512820513,4174.3589743589755,4174.871794871797,4171.794871794873,4186.153846153848,4185.128205128207,4142.051282051283,4201.538461538463,4102.564102564104,4151.794871794873,45.0,2047.0,2048.0,0.0,0.0,4.0,4.0,4.0,4.0,0.0,4.0,4.0,4.0,4.0,0.0,4.0,1.0,4.0,4.0,4.0,4.0
114.0,0.0,4178.97435897436,4211.282051282053,4182.051282051283,4169.23076923077,4186.666666666668,4174.871794871797,4175.384615384617,4175.384615384617,4181.0256410256425,4185.128205128207,4124.615384615386,4208.20512820513,4093.846153846155,4173.846153846155,845.0,2047.0,2048.0,0.0,0.0,4.0,4.0,4.0,4.0,0.0,4.0,4.0,4.0,4.0,0.0,4.0,1.0,4.0,4.0,4.0,4.0
115.0,0.0,4173.333333333335,4213.846153846155,4176.923076923078,4169.743589743592,4190.256410256412,4184.102564102565,4184.615384615386,4184.615384615386,4183.076923076925,4185.128205128207,4110.256410256412,4217.435897435899,4046.1538461538476,4188.71794871795,846.0,2047.0,2048.0,0.0,0.0,4.0,4.0,4.0,4.0,0.0,4.0,4.0,4.0,4.0,0.0,4.0,1.0,4.0,4.0,4.0,4.0
116.0,0.0,4168.20512820513,4201.538461538463,4171.282051282053,4169.743589743592,4188.20512820513,4194.3589743589755,4181.538461538463,4183.076923076925,4185.641025641027,4185.128205128207,4110.769230769232,4210.769230769232,4032.8205128205145,4181.538461538463,836.0,2047.0,2048.0,0.0,0.0,4.0,4.0,4.0,4.0,0.0,4.0,4.0,4.0,4.0,0.0,4.0,1.0,4.0,4.0,4.0,4.0
117.0,0.0,4171.794871794873,4207.179487179489,4175.897435897437,4169.743589743592,4189.743589743592,4207.692307692309,4183.589743589745,4184.102564102565,4185.641025641027,4185.128205128207,4101.0256410256425,4212.8205128205145,4026.6666666666683,4194.3589743589755,45.0,2047.0,2048.0,0.0,0.0,4.0,4.0,4.0,4.0,0.0,4.0,4.0,4.0,4.0,0.0,4.0,1.0,4.0,4.0,4.0,4.0
118.0,0.0,4174.3589743589755,4222.564102564104,4177.94871794872,4173.333333333335,4188.20512820513,4215.384615384617,4190.769230769232,4189.743589743592,4185.128205128207,4185.128205128207,4122.564102564104,4216.923076923078,4032.3076923076937,4205.641025641027,845.0,2047.0,2048.0,0.0,0.0,4.0,4.0,4.0,4.0,0.0,4.0,4.0,4.0,4.0,0.0,4.0,1.0,4.0,4.0,4.0,4.0
119.0,0.0,4174.871794871797,4216.410256410258,4174.871794871797,4172.8205128205145,4187.692307692309,4218.97435897436,4190.256410256412,4188.20512820513,4182.564102564104,4185.128205128207,4161.0256410256425,4211.794871794873,4060.512820512822,4189.743589743592,846.0,2047.0,2048.0,0.0,0.0,4.0,4.0,4.0,4.0,0.0,4.0,4.0,4.0,4.0,0.0,4.0,1.0,4.0,4.0,4.0,4.0
120.0,0.0,4182.051282051283,4211.794871794873,4183.076923076925,4169.743589743592,4188.20512820513,4222.051282051283,4195.897435897437,4186.153846153848,4183.589743589745,4185.128205128207,4182.051282051283,4214.871794871797,4050.256410256412,4184.615384615386,836.0,2047.0,2048.0,0.0,0.0,4.0,4.0,4.0,4.0,0.0,4.0,4.0,4.0,4.0,0.0,4.0,1.0,4.0,4.0,4.0,4.0
121.0,0.0,4185.128205128207,4224.102564102565,4189.23076923077,4175.897435897437,4183.589743589745,4219.487179487181,4200.000000000002,4188.71794871795,4186.666666666668,4185.128205128207,4179.487179487181,4213.333333333335,4027.692307692309,4192.307692307694,45.0,2047.0,2048.0,0.0,0.0,4.0,4.0,4.0,4.0,0.0,4.0,4.0,4.0,4.0,0.0,4.0,1.0,4.0,4.0,4.0,4.0
122.0,0.0,4184.615384615386,4229.743589743592,4189.23076923077,4187.179487179489,4187.179487179489,4217.94871794872,4192.8205128205145,4186.153846153848,4185.641025641027,4185.128205128207,4189.743589743592,4206.153846153848,4069.743589743591,4180.512820512822,845.0,2047.0,2048.0,0.0,0.0,4.0,4.0,4.0,4.0,0.0,4.0,4.0,4.0,4.0,0.0,4.0,1.0,4.0,4.0,4.0,4.0
123.0,0.0,4189.23076923077,4228.20512820513,4188.71794871795,4188.20512820513,4188.71794871795,4224.615384615386,4189.743589743592,4182.051282051283,4189.743589743592,4185.128205128207,4242.051282051283,4205.641025641027,4122.051282051283,4175.384615384617,846.0,2047.0,2048.0,0.0,0.0,4.0,4.0,4.0,4.0,0.0,4.0,4.0,4.0,4.0,0.0,4.0,1.0,4.0,4.0,4.0,4.0
124.0,0.0,4192.8205128205145,4230.769230769232,4190.769230769232,4186.153846153848,4188.71794871795,4230.256410256412,4193.333333333335,4182.564102564104,4189.743589743592,4185.128205128207,4246.666666666668,4212.307692307694,4100.000000000002,4210.769230769232,836.0,2047.0,2048.0,0.0,0.0,4.0,4.0,4.0,4.0,0.0,4.0,4.0,4.0,4.0,0.0,4.0,1.0,4.0,4.0,4.0,4.0
125.0,0.0,4189.23076923077,4231.282051282053,4194.3589743589755,4186.666666666668,4189.23076923077,4226.153846153848,4190.256410256412,4185.128205128207,4177.435897435899,4185.128205128207,4183.076923076925,4218.46153846154,4081.0256410256425,4228.20512820513,45.0,2047.0,2048.0,0.0,0.0,4.0,4.0,4.0,4.0,0.0,4.0,4.0,4.0,4.0,0.0,4.0,1.0,4.0,4.0,4.0,4.0
126.0,0.0,4188.20512820513,4233.846153846155,4191.282051282053,4188.71794871795,4185.641025641027,4224.102564102565,4186.153846153848,4185.128205128207,4173.333333333335,4185.128205128207,4201.538461538463,4211.282051282053,4140.000000000002,4192.307692307694,845.0,2047.0,2048.0,0.0,0.0,4.0,4.0,4.0,4.0,0.0,4.0,4.0,4.0,4.0,0.0,4.0,1.0,4.0,4.0,4.0,4.0
127.0,0.0,4189.743589743592,4240.000000000002,4190.256410256412,4191.794871794873,4189.23076923077,4231.282051282053,4191.282051282053,4183.076923076925,4180.512820512822,4185.128205128207,4264.102564102565,4205.641025641027,4175.384615384617,4176.410256410258,846.0,2047.0,2048.0,0.0,0.0,4.0,4.0,4.0,4.0,0.0,4.0,4.0,4.0,4.0,0.0,4.0,1.0,4.0,4.0,4.0,4.0
128.0,0.0,4196.923076923078,4238.97435897436,4195.897435897437,4191.282051282053,4189.743589743592,4234.871794871797,4197.435897435899,4184.615384615386,4185.641025641027,4185.128205128207,4221.538461538463,4210.769230769232,4160.512820512822,4210.256410256412,836.0,2047.0,2048.0,0.0,0.0,4.0,4.0,4.0,4.0,0.0,4.0,4.0,4.0,4.0,0.0,4.0,1.0,4.0,4.0,4.0,4.0
0.0,0.0,4196.923076923078,4235.384615384617,4193.333333333335,4186.666666666668,4186.666666666668,4227.692307692309,4199.487179487181,4188.71794871795,4183.589743589745,4185.128205128207,4198.46153846154,4212.307692307694,4166.666666666668,4206.666666666668,664.0,2047.0,2048.0,0.0,0.0,4.0,4.0,4.0,4.0,0.0,4.0,4.0,4.0,4.0,0.0,4.0,1.0,4.0,4.0,4.0,4.0
0.0,0.0,4196.923076923078,4235.384615384617,4193.333333333335,4186.666666666668,4186.666666666668,4227.692307692309,4199.487179487181,4188.71794871795,4183.589743589745,4185.128205128207,4198.46153846154,4212.307692307694,4166.666666666668,4206.666666666668,664.0,2047.0,2048.0,0.0,0.0,4.0,4.0,4.0,4.0,0.0,4.0,4.0,4.0,4.0,0.0,4.0,1.0,4.0,4.0,4.0,4.0
1.0,0.0,4179.487179487181,4227.692307692309,4178.97435897436,4181.0256410256425,4187.179487179489,4223.589743589745,4191.794871794873,4181.0256410256425,4174.871794871797,4185.128205128207,4271.282051282053,4205.128205128207,4185.128205128207,4164.615384615386,827.0,2047.0,2048.0,0.0,0.0,4.0,4.0,4.0,4.0,0.0,4.0,4.0,4.0,4.0,0.0,4.0,1.0,4.0,4.0,4.0,4.0
2.0,0.0,4172.307692307694,4216.923076923078,4172.8205128205145,4178.97435897436,4185.128205128207,4227.692307692309,4186.666666666668,4174.871794871797,4173.846153846155,4185.128205128207,4296.923076923078,4200.000000000002,4178.46153846154,4175.384615384617,797.0,2047.0,2048.0,0.0,0.0,4.0,4.0,4.0,4.0,0.0,4.0,4.0,4.0,4.0,0.0,4.0,1.0,4.0,4.0,4.0,4.0
3.0,0.0,4177.435897435899,4218.46153846154,4178.97435897436,4181.538461538463,4187.692307692309,4230.769230769232,4190.256410256412,4186.666666666668,4184.615384615386,4185.128205128207,4265.128205128207,4209.23076923077,4177.435897435899,4195.897435897437,774.0,2047.0,2048.0,0.0,0.0,4.0,4.0,4.0,4.0,0.0,4.0,4.0,4.0,4.0,0.0,4.0,1.0,4.0,4.0,4.0,4.0
4.0,0.0,4178.46153846154,4228.71794871795,4178.97435897436,4185.128205128207,4186.666666666668,4230.769230769232,4188.20512820513,4188.20512820513,4188.71794871795,4185.128205128207,4277.435897435899,4210.769230769232,4199.487179487181,4171.794871794873,0.0,2047.0,2048.0,0.0,0.0,4.0,4.0,4.0,4.0,0.0,4.0,4.0,4.0,4.0,0.0,4.0,1.0,4.0,4.0,4.0,4.0
5.0,0.0,4178.46153846154,4234.3589743589755,4176.410256410258,4185.641025641027,4186.666666666668,4228.20512820513,4184.102564102565,4175.897435897437,4182.051282051283,4185.128205128207,4289.743589743592,4202.564102564104,4199.487179487181,4165.128205128207,764.0,2047.0,2048.0,0.0,0.0,4.0,4.0,4.0,4.0,0.0,4.0,4.0,4.0,4.0,0.0,4.0,1.0,4.0,4.0,4.0,4.0
6.0,0.0,4175.897435897437,4231.282051282053,4179.487179487181,4184.615384615386,4190.769230769232,4221.538461538463,4183.076923076925,4175.897435897437,4180.000000000002,4185.128205128207,4268.71794871795,4205.641025641027,4182.051282051283,4178.97435897436,801.0,2047.0,2048.0,0.0,0.0,4.0,4.0,4.0,4.0,0.0,4.0,4.0,4.0,4.0,0.0,4.0,1.0,4.0,4.0,4.0,4.0
7.0,0.0,4175.384615384617,4232.307692307694,4180.512820512822,4190.769230769232,4184.615384615386,4223.589743589745,4186.153846153848,4185.128205128207,4183.589743589745,4185.128205128207,4258.97435897436,4208.71794871795,4176.923076923078,4179.487179487181,787.0,2047.0,2048.0,0.0,0.0,4.0,4.0,4.0,4.0,0.0,4.0,4.0,4.0,4.0,0.0,4.0,1.0,4.0,4.0,4.0,4.0
8.0,0.0,4186.666666666668,4242.051282051283,4188.71794871795,4198.97435897436,4187.179487179489,4229.743589743592,4189.23076923077,4186.666666666668,4186.153846153848,4185.128205128207,4261.538461538463,4209.23076923077,4178.46153846154,4187.179487179489,618.0,2047.0,2048.0,0.0,0.0,4.0,4.0,4.0,4.0,0.0,4.0,4.0,4.0,4.0,0.0,4.0,1.0,4.0,4.0,4.0,4.0
9.0,0.0,4193.846153846155,4244.102564102565,4197.94871794872,4202.564102564104,4191.794871794873,4220.512820512822,4186.666666666668,4180.000000000002,4184.615384615386,4185.128205128207,4264.615384615386,4210.256410256412,4171.794871794873,4201.538461538463,0.0,2047.0,2048.0,0.0,0.0,4.0,4.0,4.0,4.0,0.0,4.0,4.0,4.0,4.0,0.0,4.0,1.0,4.0,4.0,4.0,4.0
10.0,0.0,4189.743589743592,4235.384615384617,4195.897435897437,4200.512820512822,4186.666666666668,4209.743589743592,4184.615384615386,4176.923076923078,4180.000000000002,4185.128205128207,4264.615384615386,4209.23076923077,4155.384615384617,4200.512820512822,864.0,2047.0,2048.0,0.0,0.0,4.0,4.0,4.0,4.0,0.0,4.0,4.0,4.0,4.0,0.0,4.0,1.0,4.0,4.0,4.0,4.0
11.0,0.0,4196.410256410258,4238.97435897436,4200.000000000002,4202.051282051283,4186.666666666668,4208.71794871795,4185.128205128207,4182.051282051283,4182.564102564104,4185.128205128207,4261.0256410256425,4213.333333333335,4153.333333333335,4200.512820512822,845.0,2047.0,2048.0,0.0,0.0,4.0,4.0,4.0,4.0,0.0,4.0,4.0,4.0,4.0,0.0,4.0,1.0,4.0,4.0,4.0,4.0
12.0,0.0,4196.410256410258,4246.153846153848,4201.538461538463,4203.589743589745,4187.692307692309,4203.076923076925,4185.641025641027,4187.179487179489,4188.71794871795,4185.128205128207,4253.333333333335,4213.333333333335,4148.20512820513,4207.179487179489,852.0,2047.0,2048.0,0.0,0.0,4.0,4.0,4.0,4.0,0.0,4.0,4.0,4.0,4.0,0.0,4.0,1.0,4.0,4.0,4.0,4.0
13.0,0.0,4184.102564102565,4242.564102564104,4191.282051282053,4200.512820512822,4190.769230769232,4201.0256410256425,4184.615384615386,4184.615384615386,4190.769230769232,4185.128205128207,4243.589743589745,4210.256410256412,4099.487179487181,4201.538461538463,45.0,2047.0,2048.0,0.0,0.0,4.0,4.0,4.0,4.0,0.0,4.0,4.0,4.0,4.0,0.0,4.0,1.0,4.0,4.0,4.0,4.0
14.0,0.0,4182.051282051283,4241.0256410256425,4186.153846153848,4200.000000000002,4187.692307692309,4203.589743589745,4185.128205128207,4182.051282051283,4187.179487179489,4185.128205128207,4232.307692307694,4211.282051282053,4034.358974358976,4192.8205128205145,864.0,2047.0,2048.0,0.0,0.0,4.0,4.0,4.0,4.0,0.0,4.0,4.0,4.0,4.0,0.0,4.0,1.0,4.0,4.0,4.0,4.0
15.0,0.0,4185.128205128207,4244.615384615386,4187.179487179489,4201.538461538463,4184.615384615386,4197.94871794872,4182.564102564104,4182.051282051283,4180.512820512822,4185.128205128207,4216.410256410258,4210.769230769232,4012.3076923076937,4193.846153846155,845.0,2047.0,2048.0,0.0,0.0,4.0,4.0,4.0,4.0,0.0,4.0,4.0,4.0,4.0,0.0,4.0,1.0,4.0,4.0,4.0,4.0
16.0,0.0,4185.641025641027,4246.153846153848,4190.256410256412,4203.076923076925,4191.794871794873,4198.46153846154,4182.564102564104,4183.076923076925,4182.051282051283,4185.128205128207,4198.97435897436,4212.8205128205145,4020.0000000000014,4200.000000000002,0.0,2047.0,2048.0,0.0,0.0,4.0,4.0,4.0,4.0,0.0,4.0,4.0,4.0,4.0,0.0,4.0,1.0,4.0,4.0,4.0,4.0
17.0,0.0,4186.153846153848,4245.128205128207,4190.769230769232,4204.615384615386,4188.71794871795,4201.0256410256425,4190.256410256412,4187.179487179489,4188.71794871795,4185.128205128207,4187.692307692309,4212.307692307694,4024.615384615386,4194.871794871797,0.0,2047.0,2048.0,0.0,0.0,4.0,4.0,4.0,4.0,0.0,4.0,4.0,4.0,4.0,0.0,4.0,1.0,4.0,4.0,4.0,4.0
18.0,0.0,4183.589743589745,4236.923076923078,4187.692307692309,4200.512820512822,4187.179487179489,4188.71794871795,4184.615384615386,4185.641025641027,4185.128205128207,4185.128205128207,4174.3589743589755,4212.8205128205145,4033.846153846155,4182.564102564104,0.0,2047.0,2048.0,0.0,0.0,4.0,4.0,4.0,4.0,0.0,4.0,4.0,4.0,4.0,0.0,4.0,1.0,4.0,4.0,4.0,4.0
19.0,0.0,4183.076923076925,4229.743589743592,4187.179487179489,4192.8205128205145,4191.282051282053,4179.487179487181,4170.769230769232,4179.487179487181,4180.512820512822,4185.128205128207,4161.538461538463,4215.897435897437,4060.0000000000014,4183.076923076925,0.0,2047.0,2048.0,0.0,0.0,4.0,4.0,4.0,4.0,0.0,4.0,4.0,4.0,4.0,0.0,4.0,1.0,4.0,4.0,4.0,4.0
20.0,0.0,4186.666666666668,4230.769230769232,4186.666666666668,4192.307692307694,4190.769230769232,4185.128205128207,4171.282051282053,4174.3589743589755,4183.589743589745,4185.128205128207,4150.256410256412,4210.769230769232,4089.743589743591,4187.179487179489,0.0,2047.0,2048.0,0.0,0.0,4.0,4.0,4.0,4.0,0.0,4.0,4.0,4.0,4.0,0.0,4.0,1.0,4.0,4.0,4.0,4.0
21.0,0.0,4186.666666666668,4231.282051282053,4186.153846153848,4193.846153846155,4192.307692307694,4188.71794871795,4176.923076923078,4168.71794871795,4180.512820512822,4185.128205128207,4111.282051282053,4209.743589743592,4109.743589743592,4180.000000000002,0.0,2047.0,2048.0,0.0,0.0,4.0,4.0,4.0,4.0,0.0,4.0,4.0,4.0,4.0,0.0,4.0,1.0,4.0,4.0,4.0,4.0
22.0,0.0,4187.692307692309,4229.743589743592,4188.20512820513,4197.94871794872,4186.666666666668,4182.051282051283,4170.769230769232,4166.153846153848,4170.769230769232,4185.128205128207,4088.2051282051298,4209.23076923077,4132.8205128205145,4179.487179487181,0.0,2047.0,2048.0,0.0,0.0,4.0,4.0,4.0,4.0,0.0,4.0,4.0,4.0,4.0,0.0,4.0,1.0,4.0,4.0,4.0,4.0
23.0,0.0,4184.615384615386,4224.102564102565,4184.615384615386,4195.897435897437,4186.666666666668,4173.846153846155,4165.641025641027,4164.615384615386,4167.179487179489,4185.128205128207,4065.1282051282064,4206.666666666668,4154.3589743589755,4176.410256410258,0.0,2047.0,2048.0,0.0,0.0,4.0,4.0,4.0,4.0,0.0,4.0,4.0,4.0,4.0,0.0,4.0,1.0,4.0,4.0,4.0,4.0
24.0,0.0,4172.307692307694,4210.256410256412,4177.435897435899,4191.282051282053,4192.8205128205145,4169.743589743592,4174.871794871797,4166.666666666668,4172.307692307694,4185.128205128207,3914.8717948717963,4211.282051282053,4157.435897435899,4165.641025641027,0.0,2047.0,2048.0,0.0,0.0,4.0,4.0,4.0,4.0,0.0,4.0,4.0,4.0,4.0,0.0,4.0,1.0,4.0,4.0,4.0,4.0
25.0,0.0,4166.666666666668,4201.538461538463,4174.3589743589755,4193.333333333335,4187.692307692309,4172.307692307694,4188.71794871795,4179.487179487181,4184.102564102565,4185.128205128207,3729.230769230771,4211.282051282053,4167.692307692309,4161.0256410256425,0.0,2047.0,2048.0,0.0,0.0,4.0,4.0,4.0,4.0,0.0,4.0,4.0,4.0,4.0,0.0,4.0,1.0,4.0,4.0,4.0,4.0
26.0,0.0,4169.23076923077,4200.512820512822,4177.435897435899,4190.256410256412,4187.692307692309,4173.333333333335,4191.794871794873,4190.256410256412,4186.666666666668,4185.128205128207,3674.8717948717963,4210.769230769232,4202.564102564104,4164.615384615386,0.0,2047.0,2048.0,0.0,0.0,4.0,4.0,4.0,4.0,0.0,4.0,4.0,4.0,4.0,0.0,4.0,1.0,4.0,4.0,4.0,4.0
27.0,0.0,4174.3589743589755,4203.589743589745,4178.97435897436,4188.20512820513,4187.179487179489,4167.179487179489,4180.512820512822,4187.179487179489,4175.384615384617,4185.128205128207,3666.1538461538476,4212.307692307694,4215.384615384617,4180.512820512822,0.0,2047.0,2048.0,0.0,0.0,4.0,4.0,4.0,4.0,0.0,4.0,4.0,4.0,4.0,0.0,4.0,1.0,4.0,4.0,4.0,4.0
28.0,0.0,4176.410256410258,4212.307692307694,4177.94871794872,4196.923076923078,4186.666666666668,4166.153846153848,4171.282051282053,4177.435897435899,4173.333333333335,4185.128205128207,3629.230769230771,4209.23076923077,4203.076923076925,4187.179487179489,0.0,2047.0,2048.0,0.0,0.0,4.0,4.0,4.0,4.0,0.0,4.0,4.0,4.0,4.0,0.0,4.0,1.0,4.0,4.0,4.0,4.0
29.0,0.0,4174.3589743589755,4215.384615384617,4180.000000000002,4202.051282051283,4188.20512820513,4168.71794871795,4176.410256410258,4173.333333333335,4183.076923076925,4185.128205128207,3641.5384615384633,4207.179487179489,4222.564102564104,4176.923076923078,0.0,2047.0,2048.0,0.0,0.0,4.0,4.0,4.0,4.0,0.0,4.0,4.0,4.0,4.0,0.0,4.0,1.0,4.0,4.0,4.0,4.0
30.0,0.0,4179.487179487181,4213.333333333335,4187.179487179489,4197.94871794872,4186.153846153848,4167.692307692309,4184.102564102565,4180.512820512822,4185.128205128207,4185.128205128207,3654.358974358976,4213.846153846155,4238.97435897436,4195.897435897437,0.0,2047.0,2048.0,0.0,0.0,4.0,4.0,4.0,4.0,0.0,4.0,4.0,4.0,4.0,0.0,4.0,1.0,4.0,4.0,4.0,4.0
31.0,0.0,4187.692307692309,4218.46153846154,4190.256410256412,4202.051282051283,4187.692307692309,4167.179487179489,4184.102564102565,4187.692307692309,4180.000000000002,4185.128205128207,3624.615384615386,4218.97435897436,4227.692307692309,4204.615384615386,0.0,2047.0,2048.0,0.0,0.0,4.0,4.0,4.0,4.0,0.0,4.0,4.0,4.0,4.0,0.0,4.0,1.0,4.0,4.0,4.0,4.0
32.0,0.0,4180.000000000002,4213.846153846155,4174.3589743589755,4201.0256410256425,4186.153846153848,4164.102564102565,4180.512820512822,4177.94871794872,4178.97435897436,4185.128205128207,3612.3076923076937,4208.71794871795,4214.3589743589755,4170.769230769232,0.0,2047.0,2048.0,0.0,0.0,4.0,4.0,4.0,4.0,0.0,4.0,4.0,4.0,4.0,0.0,4.0,1.0,4.0,4.0,4.0,4.0
33.0,0.0,4166.153846153848,4200.512820512822,4166.153846153848,4190.769230769232,4188.71794871795,4155.384615384617,4182.564102564104,4170.769230769232,4183.076923076925,4185.128205128207,3593.846153846155,4208.71794871795,4184.615384615386,4176.410256410258,0.0,2047.0,2048.0,0.0,0.0,4.0,4.0,4.0,4.0,0.0,4.0,4.0,4.0,4.0,0.0,4.0,1.0,4.0,4.0,4.0,4.0
34.0,0.0,4171.794871794873,4207.692307692309,4181.538461538463,4198.46153846154,4193.846153846155,4151.794871794873,4186.666666666668,4177.435897435899,4181.538461538463,4185.128205128207,3599.487179487181,4215.897435897437,4170.769230769232,4195.384615384617,0.0,2047.0,2048.0,0.0,0.0,4.0,4.0,4.0,4.0,0.0,4.0,4.0,4.0,4.0,0.0,4.0,1.0,4.0,4.0,4.0,4.0
35.0,0.0,4172.307692307694,4220.000000000002,4177.435897435899,4203.076923076925,4186.153846153848,4162.051282051283,4182.564102564104,4172.8205128205145,4177.435897435899,4185.128205128207,3667.1794871794887,4203.589743589745,4221.0256410256425,4156.410256410258,0.0,2047.0,2048.0,0.0,0.0,4.0,4.0,4.0,4.0,0.0,4.0,4.0,4.0,4.0,0.0,4.0,1.0,4.0,4.0,4.0,4.0
