COUNTER,INTERPOLATED,AF3,F7,F3,FC5,T7,P7,O1,O2,P8,T8,FC6,F4,F8,AF4,RAW_CQ,GYROX,GYROY,MARKER,SYNC,CQ_AF3,CQ_F7,CQ_F3,CQ_FC5,CQ_T7,CQ_P7,CQ_O1,CQ_O2,CQ_P8,CQ_T8,CQ_FC6,CQ_F4,CQ_F8,CQ_AF4,CQ_CMS,CQ_DRL
118.0,0.0,4201.538461538463,4238.46153846154,4189.23076923077,4202.051282051283,4186.153846153848,4201.538461538463,4184.102564102565,4188.71794871795,4202.051282051283,4184.102564102565,4231.794871794873,4207.179487179489,4203.076923076925,4191.794871794873,856.0,2047.0,2048.0,0.0,0.0,0.0,0.0,0.0,0.0,0.0,0.0,0.0,0.0,0.0,0.0,0.0,0.0,0.0,0.0,0.0,0.0
119.0,0.0,4191.794871794873,4227.179487179489,4185.641025641027,4194.3589743589755,4185.641025641027,4194.871794871797,4185.128205128207,4187.692307692309,4197.94871794872,4186.153846153848,4233.333333333335,4204.102564102565,4197.435897435899,4186.666666666668,826.0,2047.0,2048.0,0.0,0.0,0.0,0.0,0.0,0.0,0.0,0.0,0.0,0.0,0.0,0.0,0.0,0.0,0.0,0.0,0.0,0.0
120.0,0.0,4194.3589743589755,4228.71794871795,4192.8205128205145,4194.3589743589755,4186.666666666668,4192.8205128205145,4187.692307692309,4187.179487179489,4193.846153846155,4186.666666666668,4234.871794871797,4206.666666666668,4202.564102564104,4191.794871794873,852.0,2047.0,2048.0,0.0,0.0,0.0,0.0,0.0,0.0,0.0,0.0,0.0,0.0,0.0,0.0,0.0,0.0,0.0,0.0,0.0,0.0
121.0,0.0,4194.3589743589755,4224.615384615386,4189.743589743592,4189.23076923077,4185.641025641027,4190.256410256412,4187.692307692309,4188.71794871795,4195.384615384617,4184.615384615386,4235.384615384617,4209.23076923077,4202.051282051283,4189.23076923077,238.0,2047.0,2048.0,0.0,0.0,0.0,0.0,0.0,0.0,0.0,0.0,0.0,0.0,0.0,0.0,0.0,0.0,0.0,0.0,0.0,0.0
122.0,0.0,4188.20512820513,4215.897435897437,4181.0256410256425,4184.102564102565,4184.102564102565,4183.589743589745,4174.871794871797,4185.641025641027,4194.3589743589755,4184.102564102565,4226.666666666668,4208.20512820513,4189.23076923077,4181.0256410256425,856.0,2047.0,2048.0,0.0,0.0,0.0,0.0,0.0,0.0,0.0,0.0,0.0,0.0,0.0,0.0,0.0,0.0,0.0,0.0,0.0,0.0
123.0,0.0,4184.102564102565,4215.897435897437,4180.512820512822,4184.102564102565,4183.076923076925,4188.20512820513,4174.871794871797,4184.102564102565,4188.20512820513,4184.615384615386,4213.333333333335,4207.179487179489,4183.589743589745,4180.512820512822,826.0,2047.0,2048.0,0.0,0.0,0.0,0.0,0.0,0.0,0.0,0.0,0.0,0.0,0.0,0.0,0.0,0.0,0.0,0.0,0.0,0.0
124.0,0.0,4184.102564102565,4216.410256410258,4182.564102564104,4185.641025641027,4183.589743589745,4197.435897435899,4187.179487179489,4186.666666666668,4187.179487179489,4184.615384615386,4208.71794871795,4203.589743589745,4185.641025641027,4180.000000000002,852.0,2047.0,2048.0,0.0,0.0,0.0,0.0,0.0,0.0,0.0,0.0,0.0,0.0,0.0,0.0,0.0,0.0,0.0,0.0,0.0,0.0
125.0,0.0,4188.20512820513,4212.307692307694,4185.641025641027,4184.102564102565,4186.666666666668,4192.8205128205145,4179.487179487181,4180.512820512822,4188.71794871795,4184.102564102565,4200.000000000002,4206.666666666668,4181.0256410256425,4173.333333333335,238.0,2047.0,2048.0,0.0,0.0,0.0,0.0,0.0,0.0,0.0,0.0,0.0,0.0,0.0,0.0,0.0,0.0,0.0,0.0,0.0,0.0
126.0,0.0,4187.179487179489,4209.743589743592,4181.0256410256425,4175.897435897437,4183.076923076925,4182.564102564104,4162.564102564104,4168.20512820513,4183.076923076925,4184.102564102565,4181.538461538463,4205.128205128207,4170.769230769232,4168.71794871795,856.0,2047.0,2048.0,0.0,0.0,0.0,0.0,0.0,0.0,0.0,0.0,0.0,0.0,0.0,0.0,0.0,0.0,0.0,0.0,0.0,0.0
127.0,0.0,4184.615384615386,4211.282051282053,4175.897435897437,4171.282051282053,4178.97435897436,4184.615384615386,4170.769230769232,4174.3589743589755,4181.538461538463,4184.102564102565,4175.384615384617,4201.0256410256425,4167.179487179489,4171.794871794873,826.0,2047.0,2048.0,0.0,0.0,0.0,0.0,0.0,0.0,0.0,0.0,0.0,0.0,0.0,0.0,0.0,0.0,0.0,0.0,0.0,0.0
128.0,0.0,4193.846153846155,4216.410256410258,4188.20512820513,4177.435897435899,4181.0256410256425,4189.23076923077,4187.179487179489,4189.23076923077,4181.538461538463,4184.102564102565,4185.128205128207,4208.20512820513,4169.743589743592,4181.538461538463,852.0,2047.0,2048.0,0.0,0.0,0.0,0.0,4.0,0.0,0.0,0.0,0.0,0.0,0.0,0.0,0.0,0.0,0.0,0.0,4.0,4.0
0.0,0.0,4204.615384615386,4218.97435897436,4204.615384615386,4169.23076923077,4184.615384615386,4184.102564102565,4180.000000000002,4186.666666666668,4174.3589743589755,4184.102564102565,4187.692307692309,4212.8205128205145,4172.307692307694,4188.71794871795,685.0,2047.0,2048.0,0.0,0.0,0.0,0.0,4.0,0.0,0.0,0.0,0.0,0.0,0.0,0.0,0.0,0.0,0.0,0.0,4.0,4.0
1.0,0.0,4200.000000000002,4213.333333333335,4196.923076923078,4157.435897435899,4186.153846153848,4183.076923076925,4168.20512820513,4180.000000000002,4171.794871794873,4184.102564102565,4177.94871794872,4212.307692307694,4166.153846153848,4185.641025641027,840.0,2047.0,2048.0,0.0,0.0,0.0,0.0,4.0,4.0,0.0,0.0,0.0,0.0,0.0,0.0,0.0,0.0,0.0,0.0,4.0,4.0
2.0,0.0,4193.846153846155,4206.153846153848,4177.94871794872,4165.128205128207,4182.051282051283,4188.71794871795,4170.256410256412,4184.102564102565,4176.410256410258,4184.102564102565,4169.23076923077,4211.794871794873,4154.871794871797,4183.589743589745,806.0,2047.0,2048.0,0.0,0.0,4.0,0.0,4.0,4.0,0.0,0.0,0.0,0.0,0.0,0.0,0.0,0.0,0.0,0.0,4.0,4.0
3.0,0.0,4200.512820512822,4213.333333333335,4190.769230769232,4156.410256410258,4185.128205128207,4184.615384615386,4170.256410256412,4182.564102564104,4178.46153846154,4185.128205128207,4168.71794871795,4210.769230769232,4147.179487179489,4183.076923076925,791.0,2047.0,2048.0,0.0,0.0,4.0,4.0,4.0,4.0,0.0,0.0,0.0,0.0,0.0,0.0,0.0,0.0,0.0,0.0,4.0,4.0
4.0,0.0,4206.153846153848,4229.23076923077,4206.153846153848,4146.666666666668,4186.666666666668,4182.051282051283,4172.8205128205145,4181.538461538463,4184.615384615386,4186.153846153848,4176.923076923078,4211.282051282053,4157.435897435899,4183.076923076925,0.0,2047.0,2048.0,0.0,0.0,4.0,4.0,4.0,4.0,0.0,0.0,0.0,0.0,0.0,0.0,0.0,0.0,0.0,0.0,4.0,4.0
5.0,0.0,4198.97435897436,4227.692307692309,4191.282051282053,4165.128205128207,4182.051282051283,4191.794871794873,4181.0256410256425,4189.23076923077,4190.769230769232,4186.153846153848,4170.769230769232,4213.333333333335,4162.051282051283,4192.307692307694,782.0,2047.0,2048.0,0.0,0.0,4.0,4.0,4.0,4.0,0.0,4.0,0.0,0.0,0.0,0.0,0.0,0.0,0.0,0.0,4.0,4.0
6.0,0.0,4187.692307692309,4214.3589743589755,4185.641025641027,4142.564102564104,4186.153846153848,4193.333333333335,4178.46153846154,4185.641025641027,4183.589743589745,4185.641025641027,4160.512820512822,4211.794871794873,4147.692307692309,4185.641025641027,799.0,2047.0,2048.0,0.0,0.0,4.0,4.0,4.0,4.0,0.0,4.0,4.0,0.0,0.0,0.0,0.0,0.0,0.0,0.0,4.0,4.0
7.0,0.0,4188.20512820513,4216.410256410258,4198.46153846154,4098.46153846154,4186.666666666668,4181.538461538463,4169.743589743592,4174.3589743589755,4177.435897435899,4186.153846153848,4172.8205128205145,4205.641025641027,4160.512820512822,4170.769230769232,804.0,2047.0,2048.0,0.0,0.0,4.0,4.0,4.0,4.0,0.0,4.0,4.0,4.0,0.0,0.0,0.0,0.0,0.0,0.0,4.0,4.0
8.0,0.0,4194.871794871797,4230.769230769232,4200.000000000002,4129.743589743592,4182.564102564104,4179.487179487181,4173.846153846155,4180.512820512822,4184.102564102565,4186.666666666668,4166.666666666668,4211.794871794873,4170.769230769232,4185.641025641027,658.0,2047.0,2048.0,0.0,0.0,4.0,4.0,4.0,4.0,0.0,4.0,4.0,4.0,4.0,0.0,0.0,0.0,0.0,0.0,4.0,4.0
9.0,0.0,4194.871794871797,4231.794871794873,4192.307692307694,4153.846153846155,4184.102564102565,4185.641025641027,4176.923076923078,4190.256410256412,4185.128205128207,4186.153846153848,4150.256410256412,4219.487179487181,4151.282051282053,4202.051282051283,0.0,2047.0,2048.0,0.0,0.0,4.0,4.0,4.0,4.0,0.0,4.0,4.0,4.0,4.0,0.0,0.0,0.0,0.0,0.0,4.0,4.0
10.0,0.0,4178.97435897436,4216.410256410258,4175.384615384617,4118.97435897436,4186.153846153848,4185.128205128207,4170.769230769232,4180.512820512822,4175.384615384617,4185.641025641027,4165.128205128207,4202.564102564104,4152.307692307694,4171.282051282053,857.0,2047.0,2048.0,0.0,0.0,4.0,4.0,4.0,4.0,0.0,4.0,4.0,4.0,4.0,0.0,0.0,0.0,4.0,0.0,4.0,4.0
11.0,0.0,4165.641025641027,4212.307692307694,4168.20512820513,4129.23076923077,4189.23076923077,4185.641025641027,4168.20512820513,4165.641025641027,4172.8205128205145,4186.153846153848,4170.256410256412,4192.8205128205145,4170.256410256412,4140.000000000002,850.0,2047.0,2048.0,0.0,0.0,4.0,4.0,4.0,4.0,0.0,4.0,4.0,4.0,4.0,0.0,0.0,0.0,4.0,4.0,4.0,4.0
12.0,0.0,4175.897435897437,4224.615384615386,4178.97435897436,4167.692307692309,4187.179487179489,4189.743589743592,4170.769230769232,4171.282051282053,4182.564102564104,4185.641025641027,4149.743589743592,4206.153846153848,4167.692307692309,4157.94871794872,844.0,2047.0,2048.0,0.0,0.0,4.0,4.0,4.0,4.0,0.0,4.0,4.0,4.0,4.0,0.0,4.0,0.0,4.0,4.0,4.0,4.0
13.0,0.0,4181.0256410256425,4234.871794871797,4176.410256410258,4148.71794871795,4182.564102564104,4188.20512820513,4170.769230769232,4181.0256410256425,4186.153846153848,4184.615384615386,4155.384615384617,4208.20512820513,4165.128205128207,4171.794871794873,238.0,2047.0,2048.0,0.0,0.0,4.0,4.0,4.0,4.0,0.0,4.0,4.0,4.0,4.0,0.0,4.0,2.0,4.0,4.0,4.0,4.0
14.0,0.0,4177.435897435899,4238.46153846154,4177.94871794872,4130.256410256412,4183.076923076925,4183.589743589745,4170.256410256412,4174.871794871797,4180.512820512822,4184.615384615386,4166.153846153848,4205.128205128207,4170.256410256412,4169.23076923077,857.0,2047.0,2048.0,0.0,0.0,4.0,4.0,4.0,4.0,0.0,4.0,4.0,4.0,4.0,0.0,4.0,2.0,4.0,4.0,4.0,4.0
15.0,0.0,4173.846153846155,4231.794871794873,4182.564102564104,4159.487179487181,4183.589743589745,4185.128205128207,4169.743589743592,4168.71794871795,4180.512820512822,4184.615384615386,4157.94871794872,4206.666666666668,4164.615384615386,4169.743589743592,850.0,2047.0,2048.0,0.0,0.0,4.0,4.0,4.0,4.0,0.0,4.0,4.0,4.0,4.0,0.0,4.0,2.0,4.0,4.0,4.0,4.0
16.0,0.0,4163.076923076925,4217.94871794872,4163.589743589745,4178.97435897436,4186.666666666668,4183.076923076925,4167.692307692309,4172.8205128205145,4186.153846153848,4185.128205128207,4169.743589743592,4204.102564102565,4177.435897435899,4156.410256410258,0.0,2047.0,2048.0,0.0,0.0,4.0,4.0,4.0,4.0,0.0,4.0,4.0,4.0,4.0,0.0,4.0,2.0,4.0,4.0,4.0,4.0
17.0,0.0,4163.076923076925,4214.3589743589755,4156.410256410258,4167.179487179489,4185.641025641027,4176.923076923078,4167.179487179489,4174.3589743589755,4186.153846153848,4185.128205128207,4178.46153846154,4202.564102564104,4196.923076923078,4155.897435897437,0.0,2047.0,2048.0,0.0,0.0,4.0,4.0,4.0,4.0,0.0,4.0,4.0,4.0,4.0,0.0,4.0,2.0,4.0,4.0,4.0,4.0
18.0,0.0,4173.333333333335,4220.512820512822,4175.897435897437,4158.97435897436,4185.641025641027,4181.538461538463,4171.794871794873,4173.846153846155,4185.128205128207,4185.128205128207,4164.615384615386,4202.564102564104,4189.743589743592,4170.256410256412,0.0,2047.0,2048.0,0.0,0.0,4.0,4.0,4.0,4.0,0.0,4.0,4.0,4.0,4.0,0.0,4.0,2.0,4.0,4.0,4.0,4.0
19.0,0.0,4166.666666666668,4219.487179487181,4178.97435897436,4176.923076923078,4188.71794871795,4184.102564102565,4170.769230769232,4171.282051282053,4178.46153846154,4185.128205128207,4174.871794871797,4201.538461538463,4182.564102564104,4163.076923076925,0.0,2047.0,2048.0,0.0,0.0,4.0,4.0,4.0,4.0,0.0,4.0,4.0,4.0,4.0,0.0,4.0,2.0,4.0,4.0,4.0,4.0
20.0,0.0,4158.46153846154,4214.871794871797,4168.71794871795,4189.743589743592,4184.615384615386,4174.3589743589755,4167.179487179489,4170.256410256412,4172.307692307694,4185.128205128207,4202.051282051283,4198.97435897436,4187.692307692309,4155.384615384617,0.0,2047.0,2048.0,0.0,0.0,4.0,4.0,4.0,4.0,0.0,4.0,4.0,4.0,4.0,0.0,4.0,2.0,4.0,4.0,4.0,4.0
21.0,0.0,4178.46153846154,4218.97435897436,4183.589743589745,4185.641025641027,4184.615384615386,4171.794871794873,4165.641025641027,4174.871794871797,4176.923076923078,4185.128205128207,4212.307692307694,4202.564102564104,4191.282051282053,4180.512820512822,0.0,2047.0,2048.0,0.0,0.0,4.0,4.0,4.0,4.0,0.0,4.0,4.0,4.0,4.0,0.0,4.0,2.0,4.0,4.0,4.0,4.0
22.0,0.0,4184.615384615386,4218.97435897436,4183.076923076925,4186.153846153848,4186.666666666668,4173.846153846155,4159.487179487181,4177.435897435899,4178.97435897436,4185.128205128207,4212.8205128205145,4204.102564102565,4185.128205128207,4189.23076923077,0.0,2047.0,2048.0,0.0,0.0,4.0,4.0,4.0,4.0,0.0,4.0,4.0,4.0,4.0,0.0,4.0,2.0,4.0,4.0,4.0,4.0
23.0,0.0,4165.641025641027,4202.051282051283,4164.615384615386,4182.564102564104,4184.102564102565,4164.102564102565,4153.333333333335,4167.692307692309,4170.256410256412,4185.128205128207,4207.179487179489,4198.46153846154,4176.923076923078,4168.20512820513,0.0,2047.0,2048.0,0.0,0.0,4.0,4.0,4.0,4.0,0.0,4.0,4.0,4.0,4.0,0.0,4.0,2.0,4.0,4.0,4.0,4.0
24.0,0.0,4157.94871794872,4184.615384615386,4167.179487179489,4171.794871794873,4185.641025641027,4152.307692307694,4153.846153846155,4156.410256410258,4166.666666666668,4185.128205128207,4198.46153846154,4202.051282051283,4171.282051282053,4160.512820512822,0.0,2047.0,2048.0,0.0,0.0,4.0,4.0,4.0,4.0,0.0,4.0,4.0,4.0,4.0,0.0,4.0,2.0,4.0,4.0,4.0,4.0
25.0,0.0,4155.897435897437,4182.051282051283,4166.666666666668,4165.641025641027,4187.179487179489,4150.769230769232,4154.3589743589755,4155.897435897437,4169.743589743592,4185.128205128207,4200.000000000002,4200.000000000002,4168.71794871795,4157.435897435899,0.0,2047.0,2048.0,0.0,0.0,4.0,4.0,4.0,4.0,0.0,4.0,4.0,4.0,4.0,0.0,4.0,2.0,4.0,4.0,4.0,4.0
26.0,0.0,4153.333333333335,4185.128205128207,4162.051282051283,4169.743589743592,4187.692307692309,4153.846153846155,4151.282051282053,4156.410256410258,4165.641025641027,4185.128205128207,4202.564102564104,4196.410256410258,4168.20512820513,4153.333333333335,0.0,2047.0,2048.0,0.0,0.0,4.0,4.0,4.0,4.0,0.0,4.0,4.0,4.0,4.0,0.0,4.0,2.0,4.0,4.0,4.0,4.0
27.0,0.0,4156.410256410258,4182.051282051283,4161.0256410256425,4170.256410256412,4185.128205128207,4155.384615384617,4151.282051282053,4161.0256410256425,4165.128205128207,4185.128205128207,4198.46153846154,4202.051282051283,4168.20512820513,4156.410256410258,0.0,2047.0,2048.0,0.0,0.0,4.0,4.0,4.0,4.0,0.0,4.0,4.0,4.0,4.0,0.0,4.0,2.0,4.0,4.0,4.0,4.0
28.0,0.0,4162.051282051283,4184.102564102565,4160.512820512822,4168.20512820513,4183.589743589745,4159.487179487181,4158.46153846154,4170.256410256412,4176.923076923078,4185.128205128207,4203.076923076925,4201.538461538463,4174.871794871797,4162.051282051283,0.0,2047.0,2048.0,0.0,0.0,4.0,4.0,4.0,4.0,0.0,4.0,4.0,4.0,4.0,0.0,4.0,2.0,4.0,4.0,4.0,4.0
29.0,0.0,4169.743589743592,4193.846153846155,4172.307692307694,4174.3589743589755,4187.692307692309,4169.743589743592,4168.71794871795,4172.307692307694,4181.0256410256425,4185.128205128207,4213.333333333335,4204.615384615386,4180.512820512822,4167.692307692309,0.0,2047.0,2048.0,0.0,0.0,4.0,4.0,4.0,4.0,0.0,4.0,4.0,4.0,4.0,0.0,4.0,2.0,4.0,4.0,4.0,4.0
30.0,0.0,4176.410256410258,4199.487179487181,4176.923076923078,4175.384615384617,4185.128205128207,4175.384615384617,4168.71794871795,4172.8205128205145,4180.512820512822,4185.128205128207,4216.410256410258,4208.20512820513,4181.0256410256425,4173.333333333335,0.0,2047.0,2048.0,0.0,0.0,4.0,4.0,4.0,4.0,0.0,4.0,4.0,4.0,4.0,0.0,4.0,2.0,4.0,4.0,4.0,4.0
31.0,0.0,4177.94871794872,4201.0256410256425,4174.871794871797,4166.153846153848,4183.589743589745,4171.282051282053,4166.153846153848,4175.897435897437,4181.538461538463,4185.128205128207,4216.923076923078,4206.153846153848,4183.076923076925,4175.384615384617,0.0,2047.0,2048.0,0.0,0.0,4.0,4.0,4.0,4.0,0.0,4.0,4.0,4.0,4.0,0.0,4.0,2.0,4.0,4.0,4.0,4.0
32.0,0.0,4175.384615384617,4193.846153846155,4176.923076923078,4164.102564102565,4187.179487179489,4166.666666666668,4167.692307692309,4174.871794871797,4180.000000000002,4185.128205128207,4214.3589743589755,4205.641025641027,4178.97435897436,4173.846153846155,0.0,2047.0,2048.0,0.0,0.0,4.0,4.0,4.0,4.0,0.0,4.0,4.0,4.0,4.0,0.0,4.0,2.0,4.0,4.0,4.0,4.0
33.0,0.0,4169.743589743592,4183.076923076925,4171.282051282053,4163.589743589745,4186.666666666668,4165.641025641027,4164.102564102565,4166.666666666668,4173.846153846155,4185.128205128207,4205.128205128207,4204.102564102565,4168.20512820513,4169.743589743592,0.0,2047.0,2048.0,0.0,0.0,4.0,4.0,4.0,4.0,0.0,4.0,4.0,4.0,4.0,0.0,4.0,2.0,4.0,4.0,4.0,4.0
34.0,0.0,4169.23076923077,4183.076923076925,4168.20512820513,4156.410256410258,4183.076923076925,4165.641025641027,4162.051282051283,4167.692307692309,4172.307692307694,4185.128205128207,4198.97435897436,4205.128205128207,4165.641025641027,4169.23076923077,0.0,2047.0,2048.0,0.0,0.0,4.0,4.0,4.0,4.0,0.0,4.0,4.0,4.0,4.0,0.0,4.0,2.0,4.0,4.0,4.0,4.0
35.0,0.0,4178.46153846154,4186.153846153848,4176.923076923078,4152.307692307694,4182.564102564104,4166.666666666668,4168.20512820513,4174.871794871797,4173.333333333335,4185.128205128207,4200.000000000002,4207.692307692309,4163.589743589745,4171.282051282053,0.0,2047.0,2048.0,0.0,0.0,4.0,4.0,4.0,4.0,0.0,4.0,4.0,4.0,4.0,0.0,4.0,2.0,4.0,4.0,4.0,4.0
36.0,0.0,4178.46153846154,4178.46153846154,4179.487179487181,4156.410256410258,4186.153846153848,4167.692307692309,4168.71794871795,4171.282051282053,4169.23076923077,4185.128205128207,4190.256410256412,4205.128205128207,4146.666666666668,4166.666666666668,0.0,2047.0,2048.0,0.0,0.0,4.0,4.0,4.0,4.0,0.0,4.0,4.0,4.0,4.0,0.0,4.0,2.0,4.0,4.0,4.0,4.0
37.0,0.0,4170.769230769232,4178.97435897436,4167.179487179489,4157.94871794872,4186.153846153848,4168.71794871795,4164.615384615386,4169.23076923077,4170.256410256412,4185.128205128207,4173.333333333335,4205.128205128207,4148.20512820513,4161.0256410256425,0.0,2047.0,2048.0,0.0,0.0,4.0,4.0,4.0,4.0,0.0,4.0,4.0,4.0,4.0,0.0,4.0,2.0,4.0,4.0,4.0,4.0
38.0,0.0,4180.512820512822,4196.923076923078,4176.410256410258,4143.589743589745,4181.538461538463,4171.282051282053,4165.641025641027,4178.97435897436,4172.8205128205145,4185.128205128207,4166.666666666668,4209.743589743592,4169.23076923077,4174.871794871797,0.0,2047.0,2048.0,0.0,0.0,4.0,4.0,4.0,4.0,0.0,4.0,4.0,4.0,4.0,0.0,4.0,2.0,4.0,4.0,4.0,4.0
39.0,0.0,4190.256410256412,4196.410256410258,4196.410256410258,4135.384615384617,4183.589743589745,4172.307692307694,4168.71794871795,4185.128205128207,4170.769230769232,4185.128205128207,4162.051282051283,4212.307692307694,4156.923076923078,4186.153846153848,0.0,2047.0,2048.0,0.0,0.0,4.0,4.0,4.0,4.0,0.0,4.0,4.0,4.0,4.0,0.0,4.0,2.0,4.0,4.0,4.0,4.0
40.0,0.0,4170.256410256412,4174.3589743589755,4165.641025641027,4149.743589743592,4183.589743589745,4172.307692307694,4164.102564102565,4173.333333333335,4169.743589743592,4185.128205128207,4161.538461538463,4202.051282051283,4142.051282051283,4163.076923076925,0.0,2047.0,2048.0,0.0,0.0,4.0,4.0,4.0,4.0,0.0,4.0,4.0,4.0,4.0,0.0,4.0,2.0,4.0,4.0,4.0,4.0
41.0,0.0,4163.589743589745,4185.128205128207,4148.20512820513,4156.410256410258,4184.102564102565,4177.435897435899,4165.641025641027,4167.692307692309,4174.871794871797,4185.128205128207,4166.666666666668,4198.46153846154,4173.333333333335,4155.384615384617,0.0,2047.0,2048.0,0.0,0.0,4.0,4.0,4.0,4.0,0.0,4.0,4.0,4.0,4.0,0.0,4.0,2.0,4.0,4.0,4.0,4.0
42.0,0.0,4188.20512820513,4221.0256410256425,4189.23076923077,4130.256410256412,4187.179487179489,4182.051282051283,4175.384615384617,4180.000000000002,4182.564102564104,4185.128205128207,4165.641025641027,4210.256410256412,4195.897435897437,4187.692307692309,0.0,2047.0,2048.0,0.0,0.0,4.0,4.0,4.0,4.0,0.0,4.0,4.0,4.0,4.0,0.0,4.0,2.0,4.0,4.0,4.0,4.0
43.0,0.0,4181.538461538463,4205.128205128207,4186.666666666668,4131.794871794873,4183.589743589745,4181.538461538463,4176.923076923078,4184.102564102565,4184.102564102565,4185.128205128207,4162.051282051283,4203.076923076925,4165.128205128207,4183.076923076925,0.0,2047.0,2048.0,0.0,0.0,4.0,4.0,4.0,4.0,0.0,4.0,4.0,4.0,4.0,0.0,4.0,2.0,4.0,4.0,4.0,4.0
44.0,0.0,4168.20512820513,4170.256410256412,4164.102564102565,4150.769230769232,4183.076923076925,4183.076923076925,4171.794871794873,4177.435897435899,4181.538461538463,4185.128205128207,4155.897435897437,4197.435897435899,4148.20512820513,4160.000000000002,0.0,2047.0,2048.0,0.0,0.0,4.0,4.0,4.0,4.0,0.0,4.0,4.0,4.0,4.0,0.0,4.0,2.0,4.0,4.0,4.0,4.0
45.0,0.0,4178.97435897436,4177.435897435899,4177.435897435899,4132.307692307694,4184.615384615386,4182.051282051283,4167.179487179489,4171.282051282053,4173.333333333335,4185.128205128207,4141.538461538463,4207.179487179489,4156.410256410258,4180.000000000002,0.0,2047.0,2048.0,0.0,0.0,4.0,4.0,4.0,4.0,0.0,4.0,4.0,4.0,4.0,0.0,4.0,2.0,4.0,4.0,4.0,4.0
46.0,0.0,4163.589743589745,4186.666666666668,4163.076923076925,4125.128205128207,4184.615384615386,4176.923076923078,4164.615384615386,4168.20512820513,4167.692307692309,4185.128205128207,4139.487179487181,4201.538461538463,4155.897435897437,4174.3589743589755,0.0,2047.0,2048.0,0.0,0.0,4.0,4.0,4.0,4.0,0.0,4.0,4.0,4.0,4.0,0.0,4.0,2.0,4.0,4.0,4.0,4.0
47.0,0.0,4149.743589743592,4191.794871794873,4143.589743589745,4157.94871794872,4189.23076923077,4181.538461538463,4173.846153846155,4170.769230769232,4175.384615384617,4185.128205128207,4161.538461538463,4195.384615384617,4171.794871794873,4146.666666666668,0.0,2047.0,2048.0,0.0,0.0,4.0,4.0,4.0,4.0,0.0,4.0,4.0,4.0,4.0,0.0,4.0,2.0,4.0,4.0,4.0,4.0
48.0,0.0,4175.384615384617,4211.794871794873,4173.333333333335,4167.179487179489,4190.769230769232,4188.71794871795,4183.076923076925,4175.384615384617,4188.20512820513,4185.128205128207,4176.923076923078,4203.076923076925,4191.794871794873,4169.23076923077,0.0,2047.0,2048.0,0.0,0.0,4.0,4.0,4.0,4.0,0.0,4.0,4.0,4.0,4.0,0.0,4.0,2.0,4.0,4.0,4.0,4.0
49.0,0.0,4178.46153846154,4209.743589743592,4180.512820512822,4148.20512820513,4188.71794871795,4183.076923076925,4171.794871794873,4171.282051282053,4184.102564102565,4185.128205128207,4169.23076923077,4206.153846153848,4184.102564102565,4180.512820512822,0.0,2047.0,2048.0,0.0,0.0,4.0,4.0,4.0,4.0,0.0,4.0,4.0,4.0,4.0,0.0,4.0,2.0,4.0,4.0,4.0,4.0
50.0,0.0,4156.923076923078,4191.282051282053,4146.666666666668,4154.3589743589755,4182.564102564104,4178.46153846154,4158.46153846154,4164.615384615386,4170.769230769232,4185.128205128207,4165.128205128207,4200.000000000002,4177.94871794872,4157.435897435899,0.0,2047.0,2048.0,0.0,0.0,4.0,4.0,4.0,4.0,0.0,4.0,4.0,4.0,4.0,0.0,4.0,2.0,4.0,4.0,4.0,4.0
51.0,0.0,4168.71794871795,4202.051282051283,4155.384615384617,4172.8205128205145,4183.076923076925,4185.128205128207,4171.794871794873,4173.846153846155,4174.871794871797,4185.128205128207,4187.692307692309,4202.564102564104,4194.3589743589755,4170.769230769232,0.0,2047.0,2048.0,0.0,0.0,4.0,4.0,4.0,4.0,0.0,4.0,4.0,4.0,4.0,0.0,4.0,2.0,4.0,4.0,4.0,4.0
52.0,0.0,4186.153846153848,4211.282051282053,4185.128205128207,4173.846153846155,4190.256410256412,4187.692307692309,4187.692307692309,4188.20512820513,4188.71794871795,4185.128205128207,4215.384615384617,4210.769230769232,4199.487179487181,4191.282051282053,0.0,2047.0,2048.0,0.0,0.0,4.0,4.0,4.0,4.0,0.0,4.0,4.0,4.0,4.0,0.0,4.0,2.0,4.0,4.0,4.0,4.0
53.0,0.0,4178.46153846154,4193.846153846155,4180.000000000002,4171.282051282053,4186.666666666668,4184.615384615386,4180.000000000002,4183.076923076925,4190.769230769232,4185.128205128207,4218.97435897436,4203.589743589745,4187.179487179489,4177.94871794872,0.0,2047.0,2048.0,0.0,0.0,4.0,4.0,4.0,4.0,0.0,4.0,4.0,4.0,4.0,0.0,4.0,2.0,4.0,4.0,4.0,4.0
54.0,0.0,4174.871794871797,4186.666666666668,4169.23076923077,4177.435897435899,4181.538461538463,4182.564102564104,4168.20512820513,4168.20512820513,4178.97435897436,4185.128205128207,4205.641025641027,4196.410256410258,4181.538461538463,4173.846153846155,0.0,2047.0,2048.0,0.0,0.0,4.0,4.0,4.0,4.0,0.0,4.0,4.0,4.0,4.0,0.0,4.0,2.0,4.0,4.0,4.0,4.0
55.0,0.0,4181.0256410256425,4194.871794871797,4171.794871794873,4186.666666666668,4182.051282051283,4181.0256410256425,4165.641025641027,4164.102564102565,4170.256410256412,4185.128205128207,4202.051282051283,4203.076923076925,4182.051282051283,4184.102564102565,0.0,2047.0,2048.0,0.0,0.0,4.0,4.0,4.0,4.0,0.0,4.0,4.0,4.0,4.0,0.0,4.0,2.0,4.0,4.0,4.0,4.0
56.0,0.0,4185.128205128207,4198.97435897436,4181.0256410256425,4187.179487179489,4186.153846153848,4182.564102564104,4173.846153846155,4169.743589743592,4178.97435897436,4185.128205128207,4212.307692307694,4206.153846153848,4184.102564102565,4186.153846153848,0.0,2047.0,2048.0,0.0,0.0,4.0,4.0,4.0,4.0,0.0,4.0,4.0,4.0,4.0,0.0,4.0,2.0,4.0,4.0,4.0,4.0
57.0,0.0,4185.128205128207,4192.307692307694,4184.615384615386,4186.666666666668,4188.71794871795,4180.000000000002,4180.512820512822,4171.794871794873,4188.20512820513,4185.128205128207,4217.94871794872,4204.102564102565,4188.20512820513,4185.641025641027,0.0,2047.0,2048.0,0.0,0.0,4.0,4.0,4.0,4.0,0.0,4.0,4.0,4.0,4.0,0.0,4.0,2.0,4.0,4.0,4.0,4.0
58.0,0.0,4183.076923076925,4186.666666666668,4173.846153846155,4183.589743589745,4182.564102564104,4172.307692307694,4176.410256410258,4170.769230769232,4181.538461538463,4185.128205128207,4208.71794871795,4202.564102564104,4185.641025641027,4186.666666666668,0.0,2047.0,2048.0,0.0,0.0,4.0,4.0,4.0,4.0,0.0,4.0,4.0,4.0,4.0,0.0,4.0,2.0,4.0,4.0,4.0,4.0
59.0,0.0,4180.512820512822,4186.153846153848,4172.307692307694,4176.410256410258,4182.564102564104,4172.8205128205145,4172.8205128205145,4173.333333333335,4172.8205128205145,4185.128205128207,4196.923076923078,4202.564102564104,4172.8205128205145,4180.512820512822,0.0,2047.0,2048.0,0.0,0.0,4.0,4.0,4.0,4.0,0.0,4.0,4.0,4.0,4.0,0.0,4.0,2.0,4.0,4.0,4.0,4.0
60.0,0.0,4177.94871794872,4178.97435897436,4180.000000000002,4170.256410256412,4186.153846153848,4185.128205128207,4182.051282051283,4180.000000000002,4181.0256410256425,4185.128205128207,4197.94871794872,4201.538461538463,4167.179487179489,4173.846153846155,0.0,2047.0,2048.0,0.0,0.0,4.0,4.0,4.0,4.0,0.0,4.0,4.0,4.0,4.0,0.0,4.0,2.0,4.0,4.0,4.0,4.0
61.0,0.0,4176.923076923078,4173.846153846155,4175.384615384617,4169.743589743592,4184.102564102565,4187.692307692309,4191.794871794873,4187.692307692309,4191.794871794873,4185.128205128207,4204.102564102565,4198.97435897436,4173.333333333335,4180.000000000002,0.0,2047.0,2048.0,0.0,0.0,4.0,4.0,4.0,4.0,0.0,4.0,4.0,4.0,4.0,0.0,4.0,2.0,4.0,4.0,4.0,4.0
62.0,0.0,4180.512820512822,4172.8205128205145,4176.923076923078,4171.282051282053,4184.615384615386,4174.871794871797,4183.589743589745,4180.512820512822,4181.538461538463,4185.128205128207,4196.410256410258,4204.102564102565,4170.769230769232,4183.589743589745,0.0,2047.0,2048.0,0.0,0.0,4.0,4.0,4.0,4.0,0.0,4.0,4.0,4.0,4.0,0.0,4.0,2.0,4.0,4.0,4.0,4.0
63.0,0.0,4180.512820512822,4167.692307692309,4176.410256410258,4164.615384615386,4184.615384615386,4166.666666666668,4169.23076923077,4167.179487179489,4168.71794871795,4185.128205128207,4185.128205128207,4203.589743589745,4166.666666666668,4170.256410256412,0.0,2047.0,2048.0,0.0,0.0,4.0,4.0,4.0,4.0,0.0,4.0,4.0,4.0,4.0,0.0,4.0,2.0,4.0,4.0,4.0,4.0
64.0,0.0,4181.538461538463,4176.923076923078,4172.8205128205145,4156.923076923078,4185.128205128207,4168.20512820513,4166.666666666668,4163.589743589745,4173.846153846155,4185.128205128207,4186.153846153848,4199.487179487181,4180.000000000002,4167.692307692309,684.0,2047.0,2048.0,0.0,0.0,4.0,4.0,4.0,4.0,0.0,4.0,4.0,4.0,4.0,0.0,4.0,2.0,4.0,4.0,4.0,4.0
65.0,0.0,4192.307692307694,4186.153846153848,4185.128205128207,4155.897435897437,4185.128205128207,4173.333333333335,4175.897435897437,4171.282051282053,4182.564102564104,4185.128205128207,4169.23076923077,4210.769230769232,4178.97435897436,4194.3589743589755,837.0,2047.0,2048.0,0.0,0.0,4.0,4.0,4.0,4.0,0.0,4.0,4.0,4.0,4.0,0.0,4.0,2.0,4.0,4.0,4.0,4.0
66.0,0.0,4194.871794871797,4173.846153846155,4189.743589743592,4158.97435897436,4183.589743589745,4181.538461538463,4184.102564102565,4183.589743589745,4183.589743589745,4185.128205128207,4139.487179487181,4214.3589743589755,4161.0256410256425,4196.410256410258,806.0,2047.0,2048.0,0.0,0.0,4.0,4.0,4.0,4.0,0.0,4.0,4.0,4.0,4.0,0.0,4.0,2.0,4.0,4.0,4.0,4.0
67.0,0.0,4180.000000000002,4171.282051282053,4178.46153846154,4157.94871794872,4187.179487179489,4188.20512820513,4183.076923076925,4186.666666666668,4184.102564102565,4185.128205128207,4152.8205128205145,4203.076923076925,4161.538461538463,4164.615384615386,791.0,2047.0,2048.0,0.0,0.0,4.0,4.0,4.0,4.0,0.0,4.0,4.0,4.0,4.0,0.0,4.0,2.0,4.0,4.0,4.0,4.0
68.0,0.0,4183.589743589745,4185.641025641027,4187.692307692309,4146.153846153848,4185.641025641027,4187.692307692309,4184.615384615386,4186.153846153848,4187.692307692309,4185.128205128207,4174.871794871797,4203.076923076925,4167.692307692309,4171.794871794873,0.0,2047.0,2048.0,0.0,0.0,4.0,4.0,4.0,4.0,0.0,4.0,4.0,4.0,4.0,0.0,4.0,2.0,4.0,4.0,4.0,4.0
69.0,0.0,4205.128205128207,4186.153846153848,4209.23076923077,4142.051282051283,4183.589743589745,4184.615384615386,4187.179487179489,4184.615384615386,4180.000000000002,4185.128205128207,4152.307692307694,4213.333333333335,4161.538461538463,4206.666666666668,782.0,2047.0,2048.0,0.0,0.0,4.0,4.0,4.0,4.0,0.0,4.0,4.0,4.0,4.0,0.0,4.0,2.0,4.0,4.0,4.0,4.0
70.0,0.0,4189.743589743592,4181.538461538463,4189.743589743592,4150.769230769232,4186.153846153848,4184.102564102565,4186.153846153848,4176.923076923078,4170.769230769232,4185.128205128207,4143.076923076925,4208.71794871795,4161.538461538463,4187.179487179489,799.0,2047.0,2048.0,0.0,0.0,4.0,4.0,4.0,4.0,0.0,4.0,4.0,4.0,4.0,0.0,4.0,2.0,4.0,4.0,4.0,4.0
71.0,0.0,4154.871794871797,4186.153846153848,4153.333333333335,4151.282051282053,4186.666666666668,4181.0256410256425,4180.000000000002,4164.615384615386,4168.20512820513,4185.128205128207,4159.487179487181,4191.282051282053,4162.564102564104,4144.615384615386,804.0,2047.0,2048.0,0.0,0.0,4.0,4.0,4.0,4.0,0.0,4.0,4.0,4.0,4.0,0.0,4.0,2.0,4.0,4.0,4.0,4.0
72.0,0.0,4172.307692307694,4186.666666666668,4177.435897435899,4136.410256410258,4187.692307692309,4177.94871794872,4178.46153846154,4164.615384615386,4168.20512820513,4185.128205128207,4146.153846153848,4201.538461538463,4151.282051282053,4168.20512820513,658.0,2047.0,2048.0,0.0,0.0,4.0,4.0,4.0,4.0,0.0,4.0,4.0,4.0,4.0,0.0,4.0,2.0,4.0,4.0,4.0,4.0
73.0,0.0,4204.615384615386,4191.282051282053,4206.153846153848,4140.000000000002,4186.153846153848,4182.564102564104,4184.615384615386,4180.512820512822,4175.384615384617,4185.128205128207,4143.589743589745,4215.897435897437,4162.564102564104,4202.051282051283,0.0,2047.0,2048.0,0.0,0.0,4.0,4.0,4.0,4.0,0.0,4.0,4.0,4.0,4.0,0.0,4.0,2.0,4.0,4.0,4.0,4.0
74.0,0.0,4184.615384615386,4206.153846153848,4171.794871794873,4166.153846153848,4183.589743589745,4187.692307692309,4181.0256410256425,4187.179487179489,4184.102564102565,4185.128205128207,4168.71794871795,4201.0256410256425,4187.179487179489,4171.282051282053,857.0,2047.0,2048.0,0.0,0.0,4.0,4.0,4.0,4.0,0.0,4.0,4.0,4.0,4.0,0.0,4.0,2.0,4.0,4.0,4.0,4.0
75.0,0.0,4166.666666666668,4215.384615384617,4156.923076923078,4173.846153846155,4187.179487179489,4187.179487179489,4177.435897435899,4184.102564102565,4188.71794871795,4185.128205128207,4174.3589743589755,4194.3589743589755,4189.743589743592,4148.71794871795,828.0,2047.0,2048.0,0.0,0.0,4.0,4.0,4.0,4.0,0.0,4.0,4.0,4.0,4.0,0.0,4.0,2.0,4.0,4.0,4.0,4.0
76.0,0.0,4186.153846153848,4217.94871794872,4195.897435897437,4155.384615384617,4189.23076923077,4186.153846153848,4182.051282051283,4185.128205128207,4186.666666666668,4185.128205128207,4166.153846153848,4206.153846153848,4175.384615384617,4183.076923076925,844.0,2047.0,2048.0,0.0,0.0,4.0,4.0,4.0,4.0,0.0,4.0,4.0,4.0,4.0,0.0,4.0,2.0,4.0,4.0,4.0,4.0
77.0,0.0,4188.71794871795,4205.641025641027,4204.102564102565,4145.641025641027,4188.20512820513,4187.179487179489,4178.97435897436,4181.538461538463,4181.538461538463,4185.128205128207,4162.564102564104,4210.769230769232,4162.564102564104,4198.97435897436,238.0,2047.0,2048.0,0.0,0.0,4.0,4.0,4.0,4.0,0.0,4.0,4.0,4.0,4.0,0.0,4.0,2.0,4.0,4.0,4.0,4.0
78.0,0.0,4164.615384615386,4187.692307692309,4161.0256410256425,4164.615384615386,4183.076923076925,4185.641025641027,4167.179487179489,4171.794871794873,4179.487179487181,4185.128205128207,4165.641025641027,4200.000000000002,4169.743589743592,4169.743589743592,857.0,2047.0,2048.0,0.0,0.0,4.0,4.0,4.0,4.0,0.0,4.0,4.0,4.0,4.0,0.0,4.0,2.0,4.0,4.0,4.0,4.0
79.0,0.0,4161.538461538463,4195.897435897437,4148.71794871795,4175.384615384617,4183.076923076925,4182.564102564104,4166.666666666668,4167.179487179489,4181.538461538463,4185.128205128207,4183.076923076925,4197.435897435899,4185.641025641027,4159.487179487181,828.0,2047.0,2048.0,0.0,0.0,4.0,4.0,4.0,4.0,0.0,4.0,4.0,4.0,4.0,0.0,4.0,2.0,4.0,4.0,4.0,4.0
80.0,0.0,4180.512820512822,4211.282051282053,4177.94871794872,4167.179487179489,4187.692307692309,4184.102564102565,4173.333333333335,4171.282051282053,4184.102564102565,4185.128205128207,4202.564102564104,4207.692307692309,4188.71794871795,4176.923076923078,844.0,2047.0,2048.0,0.0,0.0,4.0,4.0,4.0,4.0,0.0,4.0,4.0,4.0,4.0,0.0,4.0,2.0,4.0,4.0,4.0,4.0
81.0,0.0,4181.0256410256425,4200.000000000002,4183.589743589745,4175.384615384617,4186.666666666668,4187.179487179489,4174.3589743589755,4177.94871794872,4183.076923076925,4185.128205128207,4203.076923076925,4204.615384615386,4182.051282051283,4181.538461538463,238.0,2047.0,2048.0,0.0,0.0,4.0,4.0,4.0,4.0,0.0,4.0,4.0,4.0,4.0,0.0,4.0,2.0,4.0,4.0,4.0,4.0
82.0,0.0,4170.769230769232,4189.743589743592,4174.3589743589755,4189.23076923077,4188.71794871795,4185.641025641027,4171.794871794873,4180.512820512822,4181.538461538463,4185.128205128207,4201.538461538463,4199.487179487181,4180.512820512822,4174.871794871797,857.0,2047.0,2048.0,0.0,0.0,4.0,4.0,4.0,4.0,0.0,4.0,4.0,4.0,4.0,0.0,4.0,2.0,4.0,4.0,4.0,4.0
83.0,0.0,4177.435897435899,4200.000000000002,4174.871794871797,4189.23076923077,4186.153846153848,4182.564102564104,4166.666666666668,4180.000000000002,4182.051282051283,4185.128205128207,4214.3589743589755,4208.20512820513,4185.641025641027,4183.076923076925,828.0,2047.0,2048.0,0.0,0.0,4.0,4.0,4.0,4.0,0.0,4.0,4.0,4.0,4.0,0.0,4.0,2.0,4.0,4.0,4.0,4.0
84.0,0.0,4191.282051282053,4202.564102564104,4180.512820512822,4188.20512820513,4182.051282051283,4183.589743589745,4171.282051282053,4180.512820512822,4186.153846153848,4185.128205128207,4223.589743589745,4212.8205128205145,4191.794871794873,4200.512820512822,844.0,2047.0,2048.0,0.0,0.0,4.0,4.0,4.0,4.0,0.0,4.0,4.0,4.0,4.0,0.0,4.0,2.0,4.0,4.0,4.0,4.0
85.0,0.0,4190.769230769232,4197.94871794872,4188.20512820513,4195.384615384617,4184.102564102565,4185.641025641027,4184.615384615386,4180.512820512822,4187.692307692309,4185.128205128207,4221.0256410256425,4209.743589743592,4190.256410256412,4199.487179487181,238.0,2047.0,2048.0,0.0,0.0,4.0,4.0,4.0,4.0,0.0,4.0,4.0,4.0,4.0,0.0,4.0,2.0,4.0,4.0,4.0,4.0
86.0,0.0,4184.102564102565,4198.97435897436,4187.179487179489,4194.3589743589755,4184.102564102565,4183.076923076925,4190.256410256412,4176.923076923078,4183.589743589745,4185.128205128207,4218.46153846154,4206.153846153848,4187.692307692309,4190.256410256412,857.0,2047.0,2048.0,0.0,0.0,4.0,4.0,4.0,4.0,0.0,4.0,4.0,4.0,4.0,0.0,4.0,2.0,4.0,4.0,4.0,4.0
87.0,0.0,4181.0256410256425,4192.8205128205145,4179.487179487181,4182.564102564104,4186.666666666668,4181.538461538463,4183.589743589745,4169.23076923077,4181.0256410256425,4185.128205128207,4218.97435897436,4204.615384615386,4185.641025641027,4186.666666666668,828.0,2047.0,2048.0,0.0,0.0,4.0,4.0,4.0,4.0,0.0,4.0,4.0,4.0,4.0,0.0,4.0,2.0,4.0,4.0,4.0,4.0
88.0,0.0,4177.435897435899,4185.641025641027,4174.3589743589755,4178.46153846154,4187.179487179489,4183.589743589745,4172.307692307694,4167.692307692309,4182.564102564104,4185.128205128207,4213.333333333335,4203.076923076925,4174.3589743589755,4184.102564102565,844.0,2047.0,2048.0,0.0,0.0,4.0,4.0,4.0,4.0,0.0,4.0,4.0,4.0,4.0,0.0,4.0,2.0,4.0,4.0,4.0,4.0
89.0,0.0,4182.564102564104,4188.71794871795,4179.487179487181,4183.589743589745,4185.641025641027,4184.102564102565,4174.3589743589755,4178.46153846154,4186.666666666668,4185.128205128207,4208.71794871795,4199.487179487181,4170.769230769232,4182.051282051283,238.0,2047.0,2048.0,0.0,0.0,4.0,4.0,4.0,4.0,0.0,4.0,4.0,4.0,4.0,0.0,4.0,2.0,4.0,4.0,4.0,4.0
90.0,0.0,4188.71794871795,4190.769230769232,4185.128205128207,4186.153846153848,4188.71794871795,4184.102564102565,4185.128205128207,4188.71794871795,4189.23076923077,4185.128205128207,4213.846153846155,4203.076923076925,4178.46153846154,4184.102564102565,857.0,2047.0,2048.0,0.0,0.0,4.0,4.0,4.0,4.0,0.0,4.0,4.0,4.0,4.0,0.0,4.0,2.0,4.0,4.0,4.0,4.0
91.0,0.0,4185.128205128207,4188.20512820513,4184.615384615386,4183.076923076925,4188.71794871795,4185.128205128207,4187.179487179489,4186.666666666668,4188.20512820513,4185.128205128207,4216.410256410258,4206.153846153848,4176.923076923078,4186.153846153848,828.0,2047.0,2048.0,0.0,0.0,4.0,4.0,4.0,4.0,0.0,4.0,4.0,4.0,4.0,0.0,4.0,2.0,4.0,4.0,4.0,4.0
92.0,0.0,4183.076923076925,4185.128205128207,4187.692307692309,4177.94871794872,4187.692307692309,4184.615384615386,4184.615384615386,4182.564102564104,4186.153846153848,4185.128205128207,4206.666666666668,4205.128205128207,4169.23076923077,4183.076923076925,844.0,2047.0,2048.0,0.0,0.0,4.0,4.0,4.0,4.0,0.0,4.0,4.0,4.0,4.0,0.0,4.0,2.0,4.0,4.0,4.0,4.0
93.0,0.0,4187.692307692309,4185.128205128207,4185.128205128207,4171.282051282053,4186.666666666668,4177.435897435899,4182.051282051283,4179.487179487181,4183.589743589745,4185.128205128207,4191.794871794873,4205.641025641027,4166.153846153848,4184.102564102565,238.0,2047.0,2048.0,0.0,0.0,4.0,4.0,4.0,4.0,0.0,4.0,4.0,4.0,4.0,0.0,4.0,2.0,4.0,4.0,4.0,4.0
94.0,0.0,4185.641025641027,4184.102564102565,4177.94871794872,4165.128205128207,4184.102564102565,4166.666666666668,4172.307692307694,4167.179487179489,4182.051282051283,4185.128205128207,4174.3589743589755,4201.0256410256425,4162.051282051283,4182.051282051283,857.0,2047.0,2048.0,0.0,0.0,4.0,4.0,4.0,4.0,0.0,4.0,4.0,4.0,4.0,0.0,4.0,2.0,4.0,4.0,4.0,4.0
95.0,0.0,4183.589743589745,4184.102564102565,4187.692307692309,4165.641025641027,4188.20512820513,4171.794871794873,4171.794871794873,4164.102564102565,4182.051282051283,4185.128205128207,4166.666666666668,4204.102564102565,4164.615384615386,4179.487179487181,828.0,2047.0,2048.0,0.0,0.0,4.0,4.0,4.0,4.0,0.0,4.0,4.0,4.0,4.0,0.0,4.0,2.0,4.0,4.0,4.0,4.0
96.0,0.0,4194.3589743589755,4190.769230769232,4197.435897435899,4166.666666666668,4188.71794871795,4184.102564102565,4184.102564102565,4178.97435897436,4185.641025641027,4185.128205128207,4179.487179487181,4211.794871794873,4175.384615384617,4194.871794871797,844.0,2047.0,2048.0,0.0,0.0,4.0,4.0,4.0,4.0,0.0,4.0,4.0,4.0,4.0,0.0,4.0,2.0,4.0,4.0,4.0,4.0
97.0,0.0,4202.564102564104,4191.282051282053,4192.8205128205145,4171.282051282053,4185.641025641027,4181.0256410256425,4186.153846153848,4188.71794871795,4189.23076923077,4185.128205128207,4186.153846153848,4210.769230769232,4173.333333333335,4202.051282051283,238.0,2047.0,2048.0,0.0,0.0,4.0,4.0,4.0,4.0,0.0,4.0,4.0,4.0,4.0,0.0,4.0,2.0,4.0,4.0,4.0,4.0
98.0,0.0,4198.46153846154,4182.051282051283,4190.256410256412,4170.769230769232,4184.102564102565,4175.384615384617,4183.076923076925,4185.128205128207,4186.153846153848,4185.128205128207,4171.794871794873,4206.153846153848,4160.512820512822,4187.179487179489,857.0,2047.0,2048.0,0.0,0.0,4.0,4.0,4.0,4.0,0.0,4.0,4.0,4.0,4.0,0.0,4.0,2.0,4.0,4.0,4.0,4.0
99.0,0.0,4195.897435897437,4183.589743589745,4192.307692307694,4158.97435897436,4184.102564102565,4181.538461538463,4184.615384615386,4185.641025641027,4183.589743589745,4185.128205128207,4167.179487179489,4204.615384615386,4152.307692307694,4185.128205128207,828.0,2047.0,2048.0,0.0,0.0,4.0,4.0,4.0,4.0,0.0,4.0,4.0,4.0,4.0,0.0,4.0,2.0,4.0,4.0,4.0,4.0
100.0,0.0,4199.487179487181,4191.794871794873,4194.871794871797,4153.333333333335,4186.153846153848,4188.20512820513,4188.71794871795,4189.23076923077,4184.102564102565,4185.128205128207,4174.3589743589755,4209.23076923077,4155.897435897437,4198.46153846154,844.0,2047.0,2048.0,0.0,0.0,4.0,4.0,4.0,4.0,0.0,4.0,4.0,4.0,4.0,0.0,4.0,2.0,4.0,4.0,4.0,4.0
101.0,0.0,4196.410256410258,4182.051282051283,4191.282051282053,4151.282051282053,4183.076923076925,4181.538461538463,4184.615384615386,4180.512820512822,4184.615384615386,4185.128205128207,4157.94871794872,4209.743589743592,4156.923076923078,4200.512820512822,238.0,2047.0,2048.0,0.0,0.0,4.0,4.0,4.0,4.0,0.0,4.0,4.0,4.0,4.0,0.0,4.0,2.0,4.0,4.0,4.0,4.0
102.0,0.0,4175.384615384617,4169.23076923077,4171.282051282053,4146.153846153848,4183.589743589745,4170.769230769232,4172.8205128205145,4169.23076923077,4181.538461538463,4185.128205128207,4147.692307692309,4203.589743589745,4142.564102564104,4180.512820512822,857.0,2047.0,2048.0,0.0,0.0,4.0,4.0,4.0,4.0,0.0,4.0,4.0,4.0,4.0,0.0,4.0,2.0,4.0,4.0,4.0,4.0
103.0,0.0,4174.3589743589755,4194.871794871797,4168.20512820513,4148.20512820513,4186.153846153848,4174.3589743589755,4171.794871794873,4179.487179487181,4184.615384615386,4185.128205128207,4173.846153846155,4202.564102564104,4157.435897435899,4172.8205128205145,828.0,2047.0,2048.0,0.0,0.0,4.0,4.0,4.0,4.0,0.0,4.0,4.0,4.0,4.0,0.0,4.0,2.0,4.0,4.0,4.0,4.0
104.0,0.0,4213.333333333335,4218.97435897436,4218.46153846154,4141.538461538463,4185.128205128207,4183.076923076925,4188.71794871795,4197.94871794872,4197.435897435899,4185.128205128207,4176.923076923078,4215.384615384617,4189.743589743592,4216.410256410258,844.0,2047.0,2048.0,0.0,0.0,4.0,4.0,4.0,4.0,0.0,4.0,4.0,4.0,4.0,0.0,4.0,2.0,4.0,4.0,4.0,4.0
105.0,0.0,4215.897435897437,4191.794871794873,4230.769230769232,4135.384615384617,4187.179487179489,4178.97435897436,4187.692307692309,4192.8205128205145,4195.897435897437,4185.128205128207,4150.769230769232,4223.076923076925,4166.666666666668,4229.743589743592,238.0,2047.0,2048.0,0.0,0.0,4.0,4.0,4.0,4.0,0.0,4.0,4.0,4.0,4.0,0.0,4.0,2.0,4.0,4.0,4.0,4.0
106.0,0.0,4170.256410256412,4170.769230769232,4160.512820512822,4156.410256410258,4185.128205128207,4176.410256410258,4169.23076923077,4178.97435897436,4184.615384615386,4185.128205128207,4164.102564102565,4203.076923076925,4148.71794871795,4170.256410256412,857.0,2047.0,2048.0,0.0,0.0,4.0,4.0,4.0,4.0,0.0,4.0,4.0,4.0,4.0,0.0,4.0,2.0,4.0,4.0,4.0,4.0
107.0,0.0,4168.20512820513,4201.0256410256425,4147.692307692309,4160.512820512822,4183.076923076925,4188.20512820513,4175.897435897437,4186.153846153848,4192.307692307694,4185.128205128207,4192.307692307694,4198.46153846154,4190.769230769232,4158.97435897436,828.0,2047.0,2048.0,0.0,0.0,4.0,4.0,4.0,4.0,0.0,4.0,4.0,4.0,4.0,0.0,4.0,2.0,4.0,4.0,4.0,4.0
108.0,0.0,4201.0256410256425,4215.384615384617,4204.102564102565,4145.641025641027,4185.641025641027,4193.846153846155,4193.333333333335,4195.897435897437,4202.564102564104,4185.128205128207,4183.076923076925,4217.94871794872,4209.23076923077,4210.256410256412,844.0,2047.0,2048.0,0.0,0.0,4.0,4.0,4.0,4.0,0.0,4.0,4.0,4.0,4.0,0.0,4.0,2.0,4.0,4.0,4.0,4.0
109.0,0.0,4188.20512820513,4190.769230769232,4192.8205128205145,4161.538461538463,4185.641025641027,4186.666666666668,4188.20512820513,4187.692307692309,4191.794871794873,4185.128205128207,4171.282051282053,4208.71794871795,4182.564102564104,4204.102564102565,238.0,2047.0,2048.0,0.0,0.0,4.0,4.0,4.0,4.0,0.0,4.0,4.0,4.0,4.0,0.0,4.0,2.0,4.0,4.0,4.0,4.0
110.0,0.0,4174.3589743589755,4190.256410256412,4161.538461538463,4179.487179487181,4185.641025641027,4184.102564102565,4174.871794871797,4176.410256410258,4180.000000000002,4185.128205128207,4171.282051282053,4194.871794871797,4182.564102564104,4171.282051282053,857.0,2047.0,2048.0,0.0,0.0,4.0,4.0,4.0,4.0,0.0,4.0,4.0,4.0,4.0,0.0,4.0,2.0,4.0,4.0,4.0,4.0
111.0,0.0,4196.923076923078,4207.179487179489,4190.769230769232,4161.538461538463,4184.615384615386,4184.615384615386,4178.46153846154,4180.000000000002,4187.179487179489,4185.128205128207,4168.20512820513,4208.71794871795,4200.000000000002,4194.3589743589755,828.0,2047.0,2048.0,0.0,0.0,4.0,4.0,4.0,4.0,0.0,4.0,4.0,4.0,4.0,0.0,4.0,2.0,4.0,4.0,4.0,4.0
112.0,0.0,4193.846153846155,4199.487179487181,4198.46153846154,4154.871794871797,4185.128205128207,4181.0256410256425,4186.666666666668,4184.615384615386,4193.333333333335,4185.128205128207,4174.871794871797,4210.769230769232,4193.846153846155,4202.051282051283,844.0,2047.0,2048.0,0.0,0.0,4.0,4.0,4.0,4.0,0.0,4.0,4.0,4.0,4.0,0.0,4.0,2.0,4.0,4.0,4.0,4.0
113.0,0.0,4169.23076923077,4189.743589743592,4167.179487179489,4168.20512820513,4188.71794871795,4177.435897435899,4184.615384615386,4180.000000000002,4188.20512820513,4185.128205128207,4181.0256410256425,4202.051282051283,4185.641025641027,4172.307692307694,238.0,2047.0,2048.0,0.0,0.0,4.0,4.0,4.0,4.0,0.0,4.0,4.0,4.0,4.0,0.0,4.0,2.0,4.0,4.0,4.0,4.0
114.0,0.0,4163.589743589745,4195.384615384617,4148.20512820513,4170.256410256412,4182.051282051283,4181.0256410256425,4178.97435897436,4178.97435897436,4187.179487179489,4185.128205128207,4174.3589743589755,4202.564102564104,4190.769230769232,4166.666666666668,857.0,2047.0,2048.0,0.0,0.0,4.0,4.0,4.0,4.0,0.0,4.0,4.0,4.0,4.0,0.0,4.0,2.0,4.0,4.0,4.0,4.0
115.0,0.0,4172.307692307694,4205.128205128207,4163.076923076925,4168.20512820513,4183.589743589745,4184.615384615386,4185.641025641027,4187.692307692309,4194.3589743589755,4185.128205128207,4175.384615384617,4205.641025641027,4208.20512820513,4181.538461538463,828.0,2047.0,2048.0,0.0,0.0,4.0,4.0,4.0,4.0,0.0,4.0,4.0,4.0,4.0,0.0,4.0,2.0,4.0,4.0,4.0,4.0
116.0,0.0,4186.153846153848,4201.0256410256425,4202.051282051283,4177.435897435899,4194.871794871797,4186.666666666668,4202.051282051283,4199.487179487181,4202.051282051283,4185.128205128207,4196.923076923078,4207.692307692309,4217.435897435899,4193.846153846155,844.0,2047.0,2048.0,0.0,0.0,4.0,4.0,4.0,4.0,0.0,4.0,4.0,4.0,4.0,0.0,4.0,2.0,4.0,4.0,4.0,4.0
117.0,0.0,4192.8205128205145,4197.94871794872,4209.743589743592,4193.846153846155,4191.282051282053,4192.307692307694,4201.538461538463,4197.435897435899,4203.076923076925,4185.128205128207,4217.435897435899,4204.615384615386,4209.23076923077,4195.897435897437,238.0,2047.0,2048.0,0.0,0.0,4.0,4.0,4.0,4.0,0.0,4.0,4.0,4.0,4.0,0.0,4.0,2.0,4.0,4.0,4.0,4.0
118.0,0.0,4194.871794871797,4211.282051282053,4180.512820512822,4197.435897435899,4181.538461538463,4192.307692307694,4187.179487179489,4188.71794871795,4196.410256410258,4185.128205128207,4223.589743589745,4206.666666666668,4204.102564102565,4202.564102564104,857.0,2047.0,2048.0,0.0,0.0,4.0,4.0,4.0,4.0,0.0,4.0,4.0,4.0,4.0,0.0,4.0,2.0,4.0,4.0,4.0,4.0
119.0,0.0,4198.46153846154,4216.923076923078,4171.282051282053,4187.179487179489,4181.0256410256425,4186.153846153848,4182.051282051283,4184.615384615386,4192.8205128205145,4185.128205128207,4226.666666666668,4209.743589743592,4209.23076923077,4209.23076923077,828.0,2047.0,2048.0,0.0,0.0,4.0,4.0,4.0,4.0,0.0,4.0,4.0,4.0,4.0,0.0,4.0,2.0,4.0,4.0,4.0,4.0
120.0,0.0,4200.512820512822,4204.615384615386,4199.487179487181,4185.128205128207,4191.282051282053,4184.102564102565,4191.794871794873,4186.666666666668,4198.46153846154,4185.128205128207,4230.256410256412,4211.794871794873,4209.23076923077,4205.128205128207,844.0,2047.0,2048.0,0.0,0.0,4.0,4.0,4.0,4.0,0.0,4.0,4.0,4.0,4.0,0.0,4.0,2.0,4.0,4.0,4.0,4.0
121.0,0.0,4195.897435897437,4196.923076923078,4208.20512820513,4186.666666666668,4189.743589743592,4185.641025641027,4200.000000000002,4193.333333333335,4203.589743589745,4185.128205128207,4233.333333333335,4213.846153846155,4205.641025641027,4200.000000000002,238.0,2047.0,2048.0,0.0,0.0,4.0,4.0,4.0,4.0,0.0,4.0,4.0,4.0,4.0,0.0,4.0,2.0,4.0,4.0,4.0,4.0
122.0,0.0,4196.923076923078,4203.076923076925,4187.179487179489,4183.589743589745,4182.051282051283,4190.769230769232,4200.000000000002,4199.487179487181,4203.076923076925,4185.128205128207,4233.846153846155,4209.743589743592,4208.71794871795,4202.051282051283,857.0,2047.0,2048.0,0.0,0.0,4.0,4.0,4.0,4.0,0.0,4.0,4.0,4.0,4.0,0.0,4.0,2.0,4.0,4.0,4.0,4.0
123.0,0.0,4201.0256410256425,4202.051282051283,4181.0256410256425,4183.076923076925,4184.615384615386,4201.0256410256425,4200.000000000002,4202.051282051283,4203.589743589745,4185.128205128207,4232.8205128205145,4210.769230769232,4205.128205128207,4204.102564102565,828.0,2047.0,2048.0,0.0,0.0,4.0,4.0,4.0,4.0,0.0,4.0,4.0,4.0,4.0,0.0,4.0,2.0,4.0,4.0,4.0,4.0
124.0,0.0,4197.94871794872,4197.435897435899,4188.20512820513,4184.615384615386,4185.128205128207,4203.076923076925,4200.000000000002,4199.487179487181,4206.153846153848,4185.128205128207,4232.8205128205145,4212.8205128205145,4201.538461538463,4203.076923076925,844.0,2047.0,2048.0,0.0,0.0,4.0,4.0,4.0,4.0,0.0,4.0,4.0,4.0,4.0,0.0,4.0,2.0,4.0,4.0,4.0,4.0
125.0,0.0,4200.512820512822,4201.0256410256425,4200.512820512822,4185.128205128207,4186.153846153848,4200.512820512822,4202.051282051283,4200.000000000002,4209.23076923077,4185.128205128207,4227.692307692309,4212.307692307694,4206.666666666668,4207.692307692309,238.0,2047.0,2048.0,0.0,0.0,4.0,4.0,4.0,4.0,0.0,4.0,4.0,4.0,4.0,0.0,4.0,2.0,4.0,4.0,4.0,4.0
126.0,0.0,4202.051282051283,4201.0256410256425,4201.538461538463,4188.71794871795,4186.153846153848,4201.0256410256425,4202.051282051283,4201.0256410256425,4208.71794871795,4185.128205128207,4220.512820512822,4213.333333333335,4205.641025641027,4209.743589743592,857.0,2047.0,2048.0,0.0,0.0,4.0,4.0,4.0,4.0,0.0,4.0,4.0,4.0,4.0,0.0,4.0,2.0,4.0,4.0,4.0,4.0
127.0,0.0,4199.487179487181,4204.102564102565,4193.846153846155,4187.179487179489,4185.128205128207,4200.512820512822,4200.512820512822,4198.46153846154,4203.076923076925,4185.128205128207,4219.487179487181,4210.769230769232,4207.692307692309,4209.23076923077,828.0,2047.0,2048.0,0.0,0.0,4.0,4.0,4.0,4.0,0.0,4.0,4.0,4.0,4.0,0.0,4.0,2.0,4.0,4.0,4.0,4.0
128.0,0.0,4204.102564102565,4212.307692307694,4201.538461538463,4184.615384615386,4187.179487179489,4198.97435897436,4200.512820512822,4200.000000000002,4201.538461538463,4185.128205128207,4213.846153846155,4214.3589743589755,4212.307692307694,4213.333333333335,844.0,2047.0,2048.0,0.0,0.0,4.0,4.0,4.0,4.0,0.0,4.0,4.0,4.0,4.0,0.0,4.0,2.0,4.0,4.0,4.0,4.0
0.0,0.0,4207.692307692309,4203.589743589745,4202.564102564104,4183.076923076925,4184.102564102565,4198.97435897436,4200.512820512822,4198.46153846154,4202.051282051283,4185.128205128207,4198.97435897436,4217.94871794872,4208.20512820513,4210.769230769232,685.0,2047.0,2048.0,0.0,0.0,4.0,4.0,4.0,4.0,0.0,4.0,4.0,4.0,4.0,0.0,4.0,2.0,4.0,4.0,4.0,4.0
1.0,0.0,4204.102564102565,4186.666666666668,4191.282051282053,4175.384615384617,4183.589743589745,4198.97435897436,4197.94871794872,4189.23076923077,4197.94871794872,4185.128205128207,4188.20512820513,4211.794871794873,4196.410256410258,4202.051282051283,832.0,2047.0,2048.0,0.0,0.0,4.0,4.0,4.0,4.0,0.0,4.0,4.0,4.0,4.0,0.0,4.0,2.0,4.0,4.0,4.0,4.0
2.0,0.0,4197.94871794872,4190.256410256412,4185.641025641027,4169.743589743592,4187.179487179489,4199.487179487181,4197.435897435899,4184.102564102565,4197.435897435899,4185.128205128207,4185.641025641027,4208.20512820513,4189.23076923077,4196.410256410258,807.0,2047.0,2048.0,0.0,0.0,4.0,4.0,4.0,4.0,0.0,4.0,4.0,4.0,4.0,0.0,4.0,2.0,4.0,4.0,4.0,4.0
3.0,0.0,4199.487179487181,4200.512820512822,4191.794871794873,4171.282051282053,4185.641025641027,4201.0256410256425,4202.051282051283,4189.743589743592,4198.97435897436,4185.128205128207,4178.97435897436,4210.769230769232,4189.23076923077,4205.128205128207,795.0,2047.0,2048.0,0.0,0.0,4.0,4.0,4.0,4.0,0.0,4.0,4.0,4.0,4.0,0.0,4.0,2.0,4.0,4.0,4.0,4.0
4.0,0.0,4204.102564102565,4200.512820512822,4200.512820512822,4172.307692307694,4186.153846153848,4202.051282051283,4203.076923076925,4188.20512820513,4194.3589743589755,4185.128205128207,4178.97435897436,4217.435897435899,4191.794871794873,4210.769230769232,0.0,2047.0,2048.0,0.0,0.0,4.0,4.0,4.0,4.0,0.0,4.0,4.0,4.0,4.0,0.0,4.0,2.0,4.0,4.0,4.0,4.0
5.0,0.0,4206.153846153848,4207.179487179489,4201.538461538463,4168.71794871795,4185.641025641027,4203.589743589745,4202.051282051283,4187.692307692309,4194.3589743589755,4185.128205128207,4186.666666666668,4216.923076923078,4197.94871794872,4212.8205128205145,782.0,2047.0,2048.0,0.0,0.0,4.0,4.0,4.0,4.0,0.0,4.0,4.0,4.0,4.0,0.0,4.0,2.0,4.0,4.0,4.0,4.0
6.0,0.0,4203.076923076925,4207.692307692309,4197.94871794872,4187.179487179489,4187.179487179489,4204.615384615386,4204.102564102565,4198.97435897436,4199.487179487181,4185.128205128207,4183.076923076925,4213.333333333335,4196.923076923078,4213.846153846155,799.0,2047.0,2048.0,0.0,0.0,4.0,4.0,4.0,4.0,0.0,4.0,4.0,4.0,4.0,0.0,4.0,2.0,4.0,4.0,4.0,4.0
7.0,0.0,4202.564102564104,4202.051282051283,4196.923076923078,4200.000000000002,4188.71794871795,4197.435897435899,4200.000000000002,4198.97435897436,4201.538461538463,4185.128205128207,4180.000000000002,4216.923076923078,4197.94871794872,4208.71794871795,804.0,2047.0,2048.0,0.0,0.0,4.0,4.0,4.0,4.0,0.0,4.0,4.0,4.0,4.0,0.0,4.0,2.0,4.0,4.0,4.0,4.0
8.0,0.0,4208.71794871795,4213.333333333335,4205.128205128207,4149.743589743592,4183.589743589745,4187.692307692309,4194.871794871797,4193.333333333335,4198.97435897436,4185.128205128207,4187.692307692309,4217.435897435899,4202.564102564104,4208.71794871795,658.0,2047.0,2048.0,0.0,0.0,4.0,4.0,4.0,4.0,0.0,4.0,4.0,4.0,4.0,0.0,4.0,2.0,4.0,4.0,4.0,4.0
9.0,0.0,4206.666666666668,4216.410256410258,4207.179487179489,4132.8205128205145,4185.641025641027,4191.282051282053,4198.46153846154,4194.871794871797,4197.435897435899,4185.128205128207,4180.512820512822,4216.923076923078,4196.923076923078,4212.307692307694,0.0,2047.0,2048.0,0.0,0.0,4.0,4.0,4.0,4.0,0.0,4.0,4.0,4.0,4.0,0.0,4.0,2.0,4.0,4.0,4.0,4.0
10.0,0.0,4204.102564102565,4212.8205128205145,4201.0256410256425,4192.8205128205145,4189.743589743592,4202.051282051283,4204.102564102565,4194.871794871797,4200.000000000002,4185.128205128207,4168.20512820513,4219.487179487181,4197.94871794872,4215.897435897437,857.0,2047.0,2048.0,0.0,0.0,4.0,4.0,4.0,4.0,0.0,4.0,4.0,4.0,4.0,0.0,4.0,2.0,4.0,4.0,4.0,4.0
11.0,0.0,4211.282051282053,4211.794871794873,4207.179487179489,4195.897435897437,4187.692307692309,4197.94871794872,4198.46153846154,4188.71794871795,4198.46153846154,4185.128205128207,4171.282051282053,4218.46153846154,4200.000000000002,4218.97435897436,827.0,2047.0,2048.0,0.0,0.0,4.0,4.0,4.0,4.0,0.0,4.0,4.0,4.0,4.0,0.0,4.0,2.0,4.0,4.0,4.0,4.0
12.0,0.0,4208.71794871795,4206.666666666668,4203.589743589745,4146.666666666668,4185.641025641027,4190.256410256412,4187.179487179489,4185.641025641027,4195.897435897437,4185.128205128207,4174.871794871797,4215.897435897437,4192.307692307694,4208.20512820513,845.0,2047.0,2048.0,0.0,0.0,4.0,4.0,4.0,4.0,0.0,4.0,4.0,4.0,4.0,0.0,4.0,2.0,4.0,4.0,4.0,4.0
13.0,0.0,4195.897435897437,4214.871794871797,4179.487179487181,4164.102564102565,4186.666666666668,4197.94871794872,4190.769230769232,4191.794871794873,4200.000000000002,4185.128205128207,4185.641025641027,4209.23076923077,4200.000000000002,4189.23076923077,238.0,2047.0,2048.0,0.0,0.0,4.0,4.0,4.0,4.0,0.0,4.0,4.0,4.0,4.0,0.0,4.0,2.0,4.0,4.0,4.0,4.0
14.0,0.0,4201.0256410256425,4236.410256410258,4191.282051282053,4204.102564102565,4192.307692307694,4201.538461538463,4204.615384615386,4198.97435897436,4204.102564102565,4185.128205128207,4198.97435897436,4210.256410256412,4224.615384615386,4194.3589743589755,857.0,2047.0,2048.0,0.0,0.0,4.0,4.0,4.0,4.0,0.0,4.0,4.0,4.0,4.0,0.0,4.0,2.0,4.0,4.0,4.0,4.0
15.0,0.0,4208.71794871795,4232.307692307694,4214.3589743589755,4193.846153846155,4192.8205128205145,4191.282051282053,4199.487179487181,4193.333333333335,4200.512820512822,4185.128205128207,4191.282051282053,4216.410256410258,4225.641025641027,4207.179487179489,827.0,2047.0,2048.0,0.0,0.0,4.0,4.0,4.0,4.0,0.0,4.0,4.0,4.0,4.0,0.0,4.0,2.0,4.0,4.0,4.0,4.0
16.0,0.0,4190.256410256412,4214.871794871797,4189.23076923077,4183.076923076925,4188.20512820513,4185.128205128207,4185.641025641027,4182.051282051283,4197.94871794872,4185.128205128207,4182.051282051283,4212.307692307694,4209.23076923077,4188.20512820513,0.0,2047.0,2048.0,0.0,0.0,4.0,4.0,4.0,4.0,0.0,4.0,4.0,4.0,4.0,0.0,4.0,2.0,4.0,4.0,4.0,4.0
17.0,0.0,4187.179487179489,4220.000000000002,4168.20512820513,4185.641025641027,4184.615384615386,4187.692307692309,4187.179487179489,4188.71794871795,4201.0256410256425,4185.128205128207,4191.794871794873,4210.256410256412,4216.410256410258,4178.97435897436,0.0,2047.0,2048.0,0.0,0.0,4.0,4.0,4.0,4.0,0.0,4.0,4.0,4.0,4.0,0.0,4.0,2.0,4.0,4.0,4.0,4.0
18.0,0.0,4204.102564102565,4219.487179487181,4184.102564102565,4183.589743589745,4179.487179487181,4191.794871794873,4198.46153846154,4203.076923076925,4207.692307692309,4185.128205128207,4191.794871794873,4213.333333333335,4224.102564102565,4198.46153846154,0.0,2047.0,2048.0,0.0,0.0,4.0,4.0,4.0,4.0,0.0,4.0,4.0,4.0,4.0,0.0,4.0,2.0,4.0,4.0,4.0,4.0
19.0,0.0,4196.410256410258,4213.846153846155,4200.000000000002,4186.666666666668,4187.179487179489,4196.923076923078,4210.769230769232,4203.589743589745,4210.769230769232,4185.128205128207,4177.94871794872,4216.410256410258,4212.8205128205145,4201.538461538463,0.0,2047.0,2048.0,0.0,0.0,4.0,4.0,4.0,4.0,0.0,4.0,4.0,4.0,4.0,0.0,4.0,2.0,4.0,4.0,4.0,4.0
20.0,0.0,4183.589743589745,4222.564102564104,4203.076923076925,4193.333333333335,4194.871794871797,4198.97435897436,4214.3589743589755,4200.512820512822,4207.692307692309,4185.128205128207,4189.743589743592,4215.897435897437,4210.769230769232,4193.333333333335,0.0,2047.0,2048.0,0.0,0.0,4.0,4.0,4.0,4.0,0.0,4.0,4.0,4.0,4.0,0.0,4.0,2.0,4.0,4.0,4.0,4.0
21.0,0.0,4200.000000000002,4231.282051282053,4191.794871794873,4203.076923076925,4186.666666666668,4196.923076923078,4200.512820512822,4201.538461538463,4207.179487179489,4185.128205128207,4212.8205128205145,4211.282051282053,4223.589743589745,4202.564102564104,0.0,2047.0,2048.0,0.0,0.0,4.0,4.0,4.0,4.0,0.0,4.0,4.0,4.0,4.0,0.0,4.0,2.0,4.0,4.0,4.0,4.0
22.0,0.0,4219.487179487181,4234.871794871797,4189.23076923077,4208.71794871795,4181.0256410256425,4201.538461538463,4195.384615384617,4202.564102564104,4214.3589743589755,4185.128205128207,4219.487179487181,4217.435897435899,4232.8205128205145,4217.94871794872,0.0,2047.0,2048.0,0.0,0.0,4.0,4.0,4.0,4.0,0.0,4.0,4.0,4.0,4.0,0.0,4.0,2.0,4.0,4.0,4.0,4.0
23.0,0.0,4218.46153846154,4234.3589743589755,4206.666666666668,4210.769230769232,4186.666666666668,4204.615384615386,4209.23076923077,4205.641025641027,4218.97435897436,4185.128205128207,4222.051282051283,4221.538461538463,4235.384615384617,4225.641025641027,0.0,2047.0,2048.0,0.0,0.0,4.0,4.0,4.0,4.0,0.0,4.0,4.0,4.0,4.0,0.0,4.0,2.0,4.0,4.0,4.0,4.0
24.0,0.0,4216.410256410258,4234.3589743589755,4223.076923076925,4212.307692307694,4194.871794871797,4200.000000000002,4209.743589743592,4212.307692307694,4216.923076923078,4185.128205128207,4228.71794871795,4220.000000000002,4237.94871794872,4226.666666666668,0.0,2047.0,2048.0,0.0,0.0,4.0,4.0,4.0,4.0,0.0,4.0,4.0,4.0,4.0,0.0,4.0,2.0,4.0,4.0,4.0,4.0
25.0,0.0,4220.512820512822,4233.846153846155,4214.871794871797,4208.71794871795,4187.179487179489,4197.435897435899,4199.487179487181,4210.769230769232,4216.410256410258,4185.128205128207,4228.71794871795,4220.512820512822,4238.46153846154,4226.666666666668,0.0,2047.0,2048.0,0.0,0.0,4.0,4.0,4.0,4.0,0.0,4.0,4.0,4.0,4.0,0.0,4.0,2.0,4.0,4.0,4.0,4.0
26.0,0.0,4217.94871794872,4231.282051282053,4197.435897435899,4206.153846153848,4181.0256410256425,4196.923076923078,4199.487179487181,4203.076923076925,4215.897435897437,4185.128205128207,4222.564102564104,4218.97435897436,4233.333333333335,4224.615384615386,0.0,2047.0,2048.0,0.0,0.0,4.0,4.0,4.0,4.0,0.0,4.0,4.0,4.0,4.0,0.0,4.0,2.0,4.0,4.0,4.0,4.0
27.0,0.0,4216.923076923078,4232.307692307694,4202.051282051283,4206.666666666668,4187.692307692309,4196.410256410258,4204.102564102565,4203.076923076925,4211.794871794873,4185.128205128207,4221.0256410256425,4220.512820512822,4227.179487179489,4222.051282051283,0.0,2047.0,2048.0,0.0,0.0,4.0,4.0,4.0,4.0,0.0,4.0,4.0,4.0,4.0,0.0,4.0,2.0,4.0,4.0,4.0,4.0
28.0,0.0,4220.512820512822,4231.282051282053,4215.384615384617,4206.153846153848,4186.666666666668,4201.538461538463,4205.641025641027,4205.641025641027,4213.333333333335,4185.128205128207,4220.000000000002,4218.97435897436,4222.564102564104,4220.512820512822,0.0,2047.0,2048.0,0.0,0.0,4.0,4.0,4.0,4.0,0.0,4.0,4.0,4.0,4.0,0.0,4.0,2.0,4.0,4.0,4.0,4.0
29.0,0.0,4217.435897435899,4223.589743589745,4215.897435897437,4201.538461538463,4185.128205128207,4198.46153846154,4198.97435897436,4200.512820512822,4211.794871794873,4185.128205128207,4211.794871794873,4214.871794871797,4217.435897435899,4215.897435897437,0.0,2047.0,2048.0,0.0,0.0,4.0,4.0,4.0,4.0,0.0,4.0,4.0,4.0,4.0,0.0,4.0,2.0,4.0,4.0,4.0,4.0
30.0,0.0,4214.871794871797,4215.897435897437,4209.743589743592,4196.923076923078,4186.666666666668,4184.615384615386,4191.282051282053,4195.384615384617,4202.051282051283,4185.128205128207,4202.051282051283,4216.410256410258,4212.8205128205145,4215.384615384617,0.0,2047.0,2048.0,0.0,0.0,4.0,4.0,4.0,4.0,0.0,4.0,4.0,4.0,4.0,0.0,4.0,2.0,4.0,4.0,4.0,4.0
31.0,0.0,4219.487179487181,4219.487179487181,4203.076923076925,4195.897435897437,4185.641025641027,4188.71794871795,4195.897435897437,4198.46153846154,4201.0256410256425,4185.128205128207,4206.666666666668,4218.46153846154,4219.487179487181,4225.641025641027,0.0,2047.0,2048.0,0.0,0.0,4.0,4.0,4.0,4.0,0.0,4.0,4.0,4.0,4.0,0.0,4.0,2.0,4.0,4.0,4.0,4.0
32.0,0.0,4223.076923076925,4221.0256410256425,4206.153846153848,4201.0256410256425,4185.128205128207,4200.000000000002,4203.589743589745,4202.051282051283,4206.666666666668,4185.128205128207,4212.8205128205145,4223.589743589745,4223.076923076925,4234.3589743589755,0.0,2047.0,2048.0,0.0,0.0,4.0,4.0,4.0,4.0,0.0,4.0,4.0,4.0,4.0,0.0,4.0,2.0,4.0,4.0,4.0,4.0
33.0,0.0,4217.435897435899,4214.3589743589755,4208.71794871795,4201.0256410256425,4185.128205128207,4192.307692307694,4200.512820512822,4199.487179487181,4203.589743589745,4185.128205128207,4204.102564102565,4224.615384615386,4213.846153846155,4230.256410256412,0.0,2047.0,2048.0,0.0,0.0,4.0,4.0,4.0,4.0,0.0,4.0,4.0,4.0,4.0,0.0,4.0,2.0,4.0,4.0,4.0,4.0
34.0,0.0,4216.923076923078,4214.871794871797,4217.94871794872,4191.282051282053,4188.20512820513,4187.179487179489,4198.46153846154,4195.897435897437,4196.410256410258,4185.128205128207,4195.897435897437,4223.589743589745,4208.71794871795,4228.71794871795,0.0,2047.0,2048.0,0.0,0.0,4.0,4.0,4.0,4.0,0.0,4.0,4.0,4.0,4.0,0.0,4.0,2.0,4.0,4.0,4.0,4.0
35.0,0.0,4222.564102564104,4216.923076923078,4224.102564102565,4188.20512820513,4188.20512820513,4201.0256410256425,4203.076923076925,4201.0256410256425,4201.0256410256425,4185.128205128207,4201.538461538463,4226.153846153848,4210.256410256412,4233.846153846155,0.0,2047.0,2048.0,0.0,0.0,4.0,4.0,4.0,4.0,0.0,4.0,4.0,4.0,4.0,0.0,4.0,2.0,4.0,4.0,4.0,4.0
36.0,0.0,4219.487179487181,4212.307692307694,4202.564102564104,4202.051282051283,4183.076923076925,4208.71794871795,4203.589743589745,4203.589743589745,4205.641025641027,4185.128205128207,4206.153846153848,4219.487179487181,4201.538461538463,4224.102564102565,0.0,2047.0,2048.0,0.0,0.0,4.0,4.0,4.0,4.0,0.0,4.0,4.0,4.0,4.0,0.0,4.0,2.0,4.0,4.0,4.0,4.0
37.0,0.0,4216.410256410258,4217.94871794872,4200.000000000002,4203.589743589745,4185.128205128207,4201.538461538463,4197.435897435899,4199.487179487181,4201.538461538463,4185.128205128207,4194.3589743589755,4219.487179487181,4193.333333333335,4217.94871794872,0.0,2047.0,2048.0,0.0,0.0,4.0,4.0,4.0,4.0,0.0,4.0,4.0,4.0,4.0,0.0,4.0,2.0,4.0,4.0,4.0,4.0
38.0,0.0,4216.923076923078,4221.538461538463,4218.97435897436,4180.512820512822,4187.692307692309,4194.871794871797,4193.846153846155,4197.94871794872,4197.435897435899,4185.128205128207,4181.538461538463,4223.589743589745,4199.487179487181,4222.564102564104,0.0,2047.0,2048.0,0.0,0.0,4.0,4.0,4.0,4.0,0.0,4.0,4.0,4.0,4.0,0.0,4.0,2.0,4.0,4.0,4.0,4.0
39.0,0.0,4214.3589743589755,4206.666666666668,4213.846153846155,4171.282051282053,4186.666666666668,4198.97435897436,4200.000000000002,4201.0256410256425,4200.000000000002,4185.128205128207,4194.871794871797,4214.871794871797,4205.641025641027,4211.282051282053,0.0,2047.0,2048.0,0.0,0.0,4.0,4.0,4.0,4.0,0.0,4.0,4.0,4.0,4.0,0.0,4.0,2.0,4.0,4.0,4.0,4.0
40.0,0.0,4218.97435897436,4209.743589743592,4211.794871794873,4171.794871794873,4185.128205128207,4202.051282051283,4201.0256410256425,4200.512820512822,4201.0256410256425,4185.128205128207,4191.794871794873,4220.000000000002,4197.435897435899,4222.564102564104,0.0,2047.0,2048.0,0.0,0.0,4.0,4.0,4.0,4.0,0.0,4.0,4.0,4.0,4.0,0.0,4.0,2.0,4.0,4.0,4.0,4.0
41.0,0.0,4224.615384615386,4229.743589743592,4226.153846153848,4166.153846153848,4183.589743589745,4198.97435897436,4197.94871794872,4201.538461538463,4200.000000000002,4185.128205128207,4170.769230769232,4230.256410256412,4189.23076923077,4241.0256410256425,0.0,2047.0,2048.0,0.0,0.0,4.0,4.0,4.0,4.0,0.0,4.0,4.0,4.0,4.0,0.0,4.0,2.0,4.0,4.0,4.0,4.0
42.0,0.0,4209.743589743592,4221.0256410256425,4209.23076923077,4171.282051282053,4186.153846153848,4200.000000000002,4201.538461538463,4207.179487179489,4205.641025641027,4185.128205128207,4185.641025641027,4217.94871794872,4196.923076923078,4205.641025641027,0.0,2047.0,2048.0,0.0,0.0,4.0,4.0,4.0,4.0,0.0,4.0,4.0,4.0,4.0,0.0,4.0,2.0,4.0,4.0,4.0,4.0
43.0,0.0,4203.076923076925,4206.666666666668,4189.743589743592,4163.589743589745,4184.102564102565,4194.871794871797,4195.384615384617,4198.97435897436,4203.589743589745,4185.128205128207,4185.128205128207,4212.307692307694,4188.71794871795,4201.0256410256425,0.0,2047.0,2048.0,0.0,0.0,4.0,4.0,4.0,4.0,0.0,4.0,4.0,4.0,4.0,0.0,4.0,2.0,4.0,4.0,4.0,4.0
44.0,0.0,4216.410256410258,4211.282051282053,4212.307692307694,4141.538461538463,4183.076923076925,4188.20512820513,4183.589743589745,4187.179487179489,4193.846153846155,4185.128205128207,4156.923076923078,4227.179487179489,4164.102564102565,4243.589743589745,0.0,2047.0,2048.0,0.0,0.0,4.0,4.0,4.0,4.0,0.0,4.0,4.0,4.0,4.0,0.0,4.0,2.0,4.0,4.0,4.0,4.0
45.0,0.0,4209.23076923077,4216.923076923078,4208.20512820513,4148.20512820513,4187.692307692309,4197.94871794872,4193.333333333335,4194.871794871797,4197.435897435899,4185.128205128207,4180.000000000002,4223.589743589745,4181.538461538463,4216.410256410258,0.0,2047.0,2048.0,0.0,0.0,4.0,4.0,4.0,4.0,0.0,4.0,4.0,4.0,4.0,0.0,4.0,2.0,4.0,4.0,4.0,4.0
46.0,0.0,4178.46153846154,4218.46153846154,4162.564102564104,4173.846153846155,4186.153846153848,4207.179487179489,4203.076923076925,4199.487179487181,4204.615384615386,4185.128205128207,4204.615384615386,4197.94871794872,4208.20512820513,4153.333333333335,0.0,2047.0,2048.0,0.0,0.0,4.0,4.0,4.0,4.0,0.0,4.0,4.0,4.0,4.0,0.0,4.0,2.0,4.0,4.0,4.0,4.0
47.0,0.0,4174.871794871797,4209.743589743592,4166.666666666668,4178.46153846154,4186.666666666668,4201.538461538463,4191.794871794873,4185.641025641027,4195.897435897437,4185.128205128207,4170.769230769232,4197.94871794872,4194.871794871797,4158.97435897436,0.0,2047.0,2048.0,0.0,0.0,4.0,4.0,4.0,4.0,0.0,4.0,4.0,4.0,4.0,0.0,4.0,2.0,4.0,4.0,4.0,4.0
48.0,0.0,4198.46153846154,4201.0256410256425,4206.666666666668,4165.128205128207,4190.769230769232,4198.46153846154,4184.102564102565,4181.0256410256425,4188.20512820513,4185.128205128207,4153.846153846155,4213.846153846155,4186.666666666668,4197.435897435899,0.0,2047.0,2048.0,0.0,0.0,4.0,4.0,4.0,4.0,0.0,4.0,4.0,4.0,4.0,0.0,4.0,2.0,4.0,4.0,4.0,4.0
49.0,0.0,4197.94871794872,4212.307692307694,4201.0256410256425,4156.923076923078,4189.23076923077,4195.384615384617,4185.128205128207,4187.692307692309,4192.8205128205145,4185.128205128207,4174.871794871797,4213.333333333335,4201.538461538463,4197.435897435899,0.0,2047.0,2048.0,0.0,0.0,4.0,4.0,4.0,4.0,0.0,4.0,4.0,4.0,4.0,0.0,4.0,2.0,4.0,4.0,4.0,4.0
50.0,0.0,4183.589743589745,4224.102564102565,4167.692307692309,4175.384615384617,4183.076923076925,4192.307692307694,4183.076923076925,4188.20512820513,4200.000000000002,4185.128205128207,4190.769230769232,4207.692307692309,4211.282051282053,4181.538461538463,0.0,2047.0,2048.0,0.0,0.0,4.0,4.0,4.0,4.0,0.0,4.0,4.0,4.0,4.0,0.0,4.0,2.0,4.0,4.0,4.0,4.0
51.0,0.0,4192.307692307694,4218.46153846154,4165.128205128207,4200.000000000002,4180.512820512822,4195.384615384617,4183.076923076925,4191.282051282053,4204.102564102565,4185.128205128207,4200.000000000002,4205.128205128207,4220.512820512822,4185.641025641027,0.0,2047.0,2048.0,0.0,0.0,4.0,4.0,4.0,4.0,0.0,4.0,4.0,4.0,4.0,0.0,4.0,2.0,4.0,4.0,4.0,4.0
52.0,0.0,4203.589743589745,4218.46153846154,4194.871794871797,4191.794871794873,4188.71794871795,4193.333333333335,4186.153846153848,4191.794871794873,4200.512820512822,4185.128205128207,4196.923076923078,4211.794871794873,4216.923076923078,4201.0256410256425,0.0,2047.0,2048.0,0.0,0.0,4.0,4.0,4.0,4.0,0.0,4.0,4.0,4.0,4.0,0.0,4.0,2.0,4.0,4.0,4.0,4.0
53.0,0.0,4194.871794871797,4219.487179487181,4206.153846153848,4188.71794871795,4192.8205128205145,4193.333333333335,4190.256410256412,4186.666666666668,4197.94871794872,4185.128205128207,4200.512820512822,4215.384615384617,4200.512820512822,4192.307692307694,0.0,2047.0,2048.0,0.0,0.0,4.0,4.0,4.0,4.0,0.0,4.0,4.0,4.0,4.0,0.0,4.0,2.0,4.0,4.0,4.0,4.0
54.0,0.0,4186.666666666668,4210.769230769232,4191.282051282053,4206.153846153848,4188.20512820513,4199.487179487181,4192.307692307694,4188.20512820513,4201.0256410256425,4185.128205128207,4216.923076923078,4205.641025641027,4198.97435897436,4175.384615384617,0.0,2047.0,2048.0,0.0,0.0,4.0,4.0,4.0,4.0,0.0,4.0,4.0,4.0,4.0,0.0,4.0,2.0,4.0,4.0,4.0,4.0
55.0,0.0,4195.897435897437,4211.794871794873,4184.615384615386,4206.666666666668,4184.102564102565,4201.0256410256425,4185.641025641027,4189.23076923077,4196.923076923078,4185.128205128207,4220.512820512822,4207.179487179489,4203.589743589745,4190.769230769232,0.0,2047.0,2048.0,0.0,0.0,4.0,4.0,4.0,4.0,0.0,4.0,4.0,4.0,4.0,0.0,4.0,2.0,4.0,4.0,4.0,4.0
56.0,0.0,4201.0256410256425,4217.94871794872,4184.102564102565,4200.000000000002,4180.000000000002,4196.923076923078,4179.487179487181,4183.589743589745,4193.333333333335,4185.128205128207,4224.615384615386,4211.282051282053,4207.179487179489,4204.615384615386,0.0,2047.0,2048.0,0.0,0.0,4.0,4.0,4.0,4.0,0.0,4.0,4.0,4.0,4.0,0.0,4.0,2.0,4.0,4.0,4.0,4.0
57.0,0.0,4198.97435897436,4216.410256410258,4190.256410256412,4201.0256410256425,4187.692307692309,4189.743589743592,4183.589743589745,4182.051282051283,4197.94871794872,4185.128205128207,4233.333333333335,4212.307692307694,4212.307692307694,4201.0256410256425,0.0,2047.0,2048.0,0.0,0.0,4.0,4.0,4.0,4.0,0.0,4.0,4.0,4.0,4.0,0.0,4.0,2.0,4.0,4.0,4.0,4.0
58.0,0.0,4195.897435897437,4211.794871794873,4196.923076923078,4199.487179487181,4190.769230769232,4185.641025641027,4187.179487179489,4184.615384615386,4201.0256410256425,4185.128205128207,4232.8205128205145,4212.8205128205145,4214.3589743589755,4197.435897435899,0.0,2047.0,2048.0,0.0,0.0,4.0,4.0,4.0,4.0,0.0,4.0,4.0,4.0,4.0,0.0,4.0,2.0,4.0,4.0,4.0,4.0
59.0,0.0,4196.923076923078,4211.794871794873,4189.23076923077,4197.94871794872,4181.538461538463,4188.71794871795,4180.512820512822,4184.102564102565,4199.487179487181,4185.128205128207,4231.794871794873,4208.71794871795,4216.923076923078,4198.46153846154,0.0,2047.0,2048.0,0.0,0.0,4.0,4.0,4.0,4.0,0.0,4.0,4.0,4.0,4.0,0.0,4.0,2.0,4.0,4.0,4.0,4.0
60.0,0.0,4201.0256410256425,4213.333333333335,4182.564102564104,4200.512820512822,4181.0256410256425,4189.743589743592,4178.97435897436,4184.615384615386,4200.000000000002,4185.128205128207,4236.410256410258,4208.71794871795,4211.794871794873,4198.97435897436,0.0,2047.0,2048.0,0.0,0.0,4.0,4.0,4.0,4.0,0.0,4.0,4.0,4.0,4.0,0.0,4.0,2.0,4.0,4.0,4.0,4.0
61.0,0.0,4199.487179487181,4211.282051282053,4183.076923076925,4200.512820512822,4184.615384615386,4189.743589743592,4186.153846153848,4187.692307692309,4202.051282051283,4185.128205128207,4237.435897435899,4210.256410256412,4202.051282051283,4198.46153846154,0.0,2047.0,2048.0,0.0,0.0,4.0,4.0,4.0,4.0,0.0,4.0,4.0,4.0,4.0,0.0,4.0,2.0,4.0,4.0,4.0,4.0
62.0,0.0,4201.0256410256425,4212.8205128205145,4197.435897435899,4199.487179487181,4187.692307692309,4191.794871794873,4190.256410256412,4188.71794871795,4198.97435897436,4185.128205128207,4232.8205128205145,4213.846153846155,4203.589743589745,4204.615384615386,0.0,2047.0,2048.0,0.0,0.0,4.0,4.0,4.0,4.0,0.0,4.0,4.0,4.0,4.0,0.0,4.0,2.0,4.0,4.0,4.0,4.0
63.0,0.0,4210.256410256412,4215.897435897437,4212.307692307694,4202.051282051283,4187.692307692309,4188.71794871795,4187.179487179489,4184.615384615386,4196.923076923078,4185.128205128207,4234.871794871797,4218.46153846154,4208.20512820513,4214.3589743589755,0.0,2047.0,2048.0,0.0,0.0,4.0,4.0,4.0,4.0,0.0,4.0,4.0,4.0,4.0,0.0,4.0,2.0,4.0,4.0,4.0,4.0
64.0,0.0,4215.897435897437,4216.923076923078,4199.487179487181,4207.179487179489,4184.615384615386,4188.20512820513,4185.128205128207,4183.076923076925,4201.0256410256425,4185.128205128207,4235.384615384617,4215.384615384617,4207.692307692309,4218.46153846154,684.0,2047.0,2048.0,0.0,0.0,4.0,4.0,4.0,4.0,0.0,4.0,4.0,4.0,4.0,0.0,4.0,2.0,4.0,4.0,4.0,4.0
65.0,0.0,4215.384615384617,4216.410256410258,4191.282051282053,4199.487179487181,4185.128205128207,4190.769230769232,4186.666666666668,4183.076923076925,4198.46153846154,4185.128205128207,4218.46153846154,4214.3589743589755,4206.153846153848,4215.384615384617,832.0,2047.0,2048.0,0.0,0.0,4.0,4.0,4.0,4.0,0.0,4.0,4.0,4.0,4.0,0.0,4.0,2.0,4.0,4.0,4.0,4.0
66.0,0.0,4205.641025641027,4206.666666666668,4191.282051282053,4181.538461538463,4184.102564102565,4185.641025641027,4183.589743589745,4176.410256410258,4188.20512820513,4185.128205128207,4195.897435897437,4214.3589743589755,4196.923076923078,4206.666666666668,807.0,2047.0,2048.0,0.0,0.0,4.0,4.0,4.0,4.0,0.0,4.0,4.0,4.0,4.0,0.0,4.0,2.0,4.0,4.0,4.0,4.0
67.0,0.0,4188.71794871795,4194.871794871797,4182.564102564104,4180.000000000002,4184.615384615386,4177.94871794872,4177.435897435899,4169.23076923077,4183.589743589745,4185.128205128207,4184.615384615386,4208.20512820513,4178.97435897436,4188.71794871795,794.0,2047.0,2048.0,0.0,0.0,4.0,4.0,4.0,4.0,0.0,4.0,4.0,4.0,4.0,0.0,4.0,2.0,4.0,4.0,4.0,4.0
68.0,0.0,4193.846153846155,4190.769230769232,4195.384615384617,4178.46153846154,4187.692307692309,4179.487179487181,4178.46153846154,4175.897435897437,4184.102564102565,4185.128205128207,4184.102564102565,4210.769230769232,4178.97435897436,4187.179487179489,0.0,2047.0,2048.0,0.0,0.0,4.0,4.0,4.0,4.0,0.0,4.0,4.0,4.0,4.0,0.0,4.0,2.0,4.0,4.0,4.0,4.0
69.0,0.0,4209.23076923077,4187.692307692309,4208.71794871795,4168.71794871795,4188.20512820513,4185.128205128207,4182.051282051283,4184.102564102565,4183.076923076925,4185.128205128207,4183.589743589745,4215.384615384617,4192.8205128205145,4200.000000000002,782.0,2047.0,2048.0,0.0,0.0,4.0,4.0,4.0,4.0,0.0,4.0,4.0,4.0,4.0,0.0,4.0,2.0,4.0,4.0,4.0,4.0
70.0,0.0,4203.589743589745,4191.282051282053,4192.8205128205145,4170.256410256412,4188.71794871795,4186.666666666668,4181.0256410256425,4182.564102564104,4183.076923076925,4185.128205128207,4183.589743589745,4212.8205128205145,4192.8205128205145,4192.307692307694,799.0,2047.0,2048.0,0.0,0.0,4.0,4.0,4.0,4.0,0.0,4.0,4.0,4.0,4.0,0.0,4.0,2.0,4.0,4.0,4.0,4.0
71.0,0.0,4194.3589743589755,4201.0256410256425,4178.97435897436,4184.102564102565,4184.102564102565,4184.615384615386,4179.487179487181,4181.0256410256425,4185.641025641027,4185.128205128207,4181.0256410256425,4209.743589743592,4183.076923076925,4186.666666666668,804.0,2047.0,2048.0,0.0,0.0,4.0,4.0,4.0,4.0,0.0,4.0,4.0,4.0,4.0,0.0,4.0,2.0,4.0,4.0,4.0,4.0
72.0,0.0,4201.538461538463,4207.179487179489,4191.282051282053,4190.256410256412,4184.102564102565,4186.153846153848,4182.564102564104,4183.076923076925,4185.128205128207,4185.128205128207,4177.94871794872,4214.3589743589755,4184.615384615386,4202.564102564104,658.0,2047.0,2048.0,0.0,0.0,4.0,4.0,4.0,4.0,0.0,4.0,4.0,4.0,4.0,0.0,4.0,2.0,4.0,4.0,4.0,4.0
73.0,0.0,4207.692307692309,4209.743589743592,4210.256410256412,4162.564102564104,4190.256410256412,4189.23076923077,4185.128205128207,4184.615384615386,4186.666666666668,4185.128205128207,4188.20512820513,4220.512820512822,4201.0256410256425,4210.256410256412,0.0,2047.0,2048.0,0.0,0.0,4.0,4.0,4.0,4.0,0.0,4.0,4.0,4.0,4.0,0.0,4.0,2.0,4.0,4.0,4.0,4.0
74.0,0.0,4200.000000000002,4203.589743589745,4213.333333333335,4137.435897435899,4188.20512820513,4185.641025641027,4186.153846153848,4185.128205128207,4191.282051282053,4185.128205128207,4189.743589743592,4214.871794871797,4203.589743589745,4197.94871794872,857.0,2047.0,2048.0,0.0,0.0,4.0,4.0,4.0,4.0,0.0,4.0,4.0,4.0,4.0,0.0,4.0,2.0,4.0,4.0,4.0,4.0
75.0,0.0,4197.435897435899,4196.410256410258,4198.97435897436,4170.769230769232,4186.153846153848,4184.102564102565,4183.076923076925,4181.538461538463,4186.153846153848,4185.128205128207,4164.615384615386,4214.3589743589755,4189.743589743592,4198.97435897436,826.0,2047.0,2048.0,0.0,0.0,4.0,4.0,4.0,4.0,0.0,4.0,4.0,4.0,4.0,0.0,4.0,2.0,4.0,4.0,4.0,4.0
76.0,0.0,4207.692307692309,4217.435897435899,4188.71794871795,4193.333333333335,4185.641025641027,4191.282051282053,4177.435897435899,4182.564102564104,4184.615384615386,4185.128205128207,4169.743589743592,4214.871794871797,4189.743589743592,4211.282051282053,845.0,2047.0,2048.0,0.0,0.0,4.0,4.0,4.0,4.0,0.0,4.0,4.0,4.0,4.0,0.0,4.0,2.0,4.0,4.0,4.0,4.0
77.0,0.0,4219.487179487181,4238.46153846154,4208.71794871795,4153.333333333335,4186.666666666668,4202.051282051283,4191.282051282053,4195.897435897437,4197.435897435899,4185.128205128207,4215.384615384617,4213.333333333335,4212.8205128205145,4214.3589743589755,238.0,2047.0,2048.0,0.0,0.0,4.0,4.0,4.0,4.0,0.0,4.0,4.0,4.0,4.0,0.0,4.0,2.0,4.0,4.0,4.0,4.0
78.0,0.0,4216.410256410258,4222.051282051283,4221.538461538463,4149.23076923077,4189.743589743592,4206.153846153848,4202.564102564104,4204.102564102565,4204.615384615386,4185.128205128207,4214.871794871797,4218.46153846154,4223.589743589745,4217.94871794872,857.0,2047.0,2048.0,0.0,0.0,4.0,4.0,4.0,4.0,0.0,4.0,4.0,4.0,4.0,0.0,4.0,2.0,4.0,4.0,4.0,4.0
79.0,0.0,4210.256410256412,4210.256410256412,4199.487179487181,4196.410256410258,4187.179487179489,4202.051282051283,4191.282051282053,4199.487179487181,4196.923076923078,4185.128205128207,4178.46153846154,4218.46153846154,4211.794871794873,4216.923076923078,826.0,2047.0,2048.0,0.0,0.0,4.0,4.0,4.0,4.0,0.0,4.0,4.0,4.0,4.0,0.0,4.0,2.0,4.0,4.0,4.0,4.0
80.0,0.0,4215.897435897437,4232.8205128205145,4197.435897435899,4199.487179487181,4186.666666666668,4200.512820512822,4189.23076923077,4197.94871794872,4194.871794871797,4185.128205128207,4187.692307692309,4216.410256410258,4208.20512820513,4211.794871794873,845.0,2047.0,2048.0,0.0,0.0,4.0,4.0,4.0,4.0,0.0,4.0,4.0,4.0,4.0,0.0,4.0,2.0,4.0,4.0,4.0,4.0
81.0,0.0,4210.769230769232,4241.538461538463,4204.102564102565,4178.46153846154,4188.20512820513,4201.538461538463,4197.94871794872,4200.512820512822,4201.0256410256425,4185.128205128207,4209.743589743592,4216.410256410258,4214.871794871797,4207.179487179489,238.0,2047.0,2048.0,0.0,0.0,4.0,4.0,4.0,4.0,0.0,4.0,4.0,4.0,4.0,0.0,4.0,2.0,4.0,4.0,4.0,4.0
82.0,0.0,4192.307692307694,4221.0256410256425,4190.769230769232,4185.128205128207,4189.23076923077,4194.3589743589755,4192.8205128205145,4200.512820512822,4202.564102564104,4185.128205128207,4205.641025641027,4210.769230769232,4216.923076923078,4199.487179487181,857.0,2047.0,2048.0,0.0,0.0,4.0,4.0,4.0,4.0,0.0,4.0,4.0,4.0,4.0,0.0,4.0,2.0,4.0,4.0,4.0,4.0
83.0,0.0,4190.769230769232,4220.512820512822,4194.3589743589755,4193.333333333335,4188.71794871795,4186.666666666668,4184.615384615386,4196.923076923078,4200.000000000002,4185.128205128207,4207.692307692309,4208.71794871795,4221.0256410256425,4193.333333333335,826.0,2047.0,2048.0,0.0,0.0,4.0,4.0,4.0,4.0,0.0,4.0,4.0,4.0,4.0,0.0,4.0,2.0,4.0,4.0,4.0,4.0
84.0,0.0,4203.589743589745,4238.46153846154,4204.102564102565,4186.666666666668,4184.102564102565,4186.153846153848,4187.179487179489,4193.846153846155,4202.051282051283,4185.128205128207,4218.46153846154,4213.333333333335,4234.871794871797,4206.153846153848,845.0,2047.0,2048.0,0.0,0.0,4.0,4.0,4.0,4.0,0.0,4.0,4.0,4.0,4.0,0.0,4.0,2.0,4.0,4.0,4.0,4.0
85.0,0.0,4198.97435897436,4230.256410256412,4185.641025641027,4178.46153846154,4184.615384615386,4185.128205128207,4183.589743589745,4188.20512820513,4198.97435897436,4185.128205128207,4217.435897435899,4215.384615384617,4229.743589743592,4209.743589743592,238.0,2047.0,2048.0,0.0,0.0,4.0,4.0,4.0,4.0,0.0,4.0,4.0,4.0,4.0,0.0,4.0,2.0,4.0,4.0,4.0,4.0
86.0,0.0,4181.538461538463,4215.384615384617,4168.20512820513,4183.076923076925,4186.666666666668,4182.051282051283,4176.410256410258,4182.564102564104,4190.769230769232,4185.128205128207,4216.923076923078,4211.282051282053,4206.666666666668,4186.153846153848,857.0,2047.0,2048.0,0.0,0.0,4.0,4.0,4.0,4.0,0.0,4.0,4.0,4.0,4.0,0.0,4.0,2.0,4.0,4.0,4.0,4.0
87.0,0.0,4177.94871794872,4223.589743589745,4182.051282051283,4187.692307692309,4189.743589743592,4184.615384615386,4182.564102564104,4182.051282051283,4186.153846153848,4185.128205128207,4216.923076923078,4207.692307692309,4204.615384615386,4182.051282051283,826.0,2047.0,2048.0,0.0,0.0,4.0,4.0,4.0,4.0,0.0,4.0,4.0,4.0,4.0,0.0,4.0,2.0,4.0,4.0,4.0,4.0
88.0,0.0,4191.282051282053,4232.307692307694,4198.46153846154,4183.076923076925,4191.794871794873,4191.282051282053,4194.3589743589755,4183.589743589745,4188.71794871795,4185.128205128207,4215.384615384617,4210.769230769232,4217.94871794872,4201.538461538463,845.0,2047.0,2048.0,0.0,0.0,4.0,4.0,4.0,4.0,0.0,4.0,4.0,4.0,4.0,0.0,4.0,2.0,4.0,4.0,4.0,4.0
89.0,0.0,4198.97435897436,4226.153846153848,4185.641025641027,4190.769230769232,4182.051282051283,4194.871794871797,4200.512820512822,4188.71794871795,4197.435897435899,4185.128205128207,4225.128205128207,4211.794871794873,4218.46153846154,4204.102564102565,238.0,2047.0,2048.0,0.0,0.0,4.0,4.0,4.0,4.0,0.0,4.0,4.0,4.0,4.0,0.0,4.0,2.0,4.0,4.0,4.0,4.0
90.0,0.0,4193.846153846155,4225.641025641027,4179.487179487181,4203.589743589745,4181.0256410256425,4197.435897435899,4200.512820512822,4198.46153846154,4203.589743589745,4185.128205128207,4231.794871794873,4213.333333333335,4212.307692307694,4194.871794871797,857.0,2047.0,2048.0,0.0,0.0,4.0,4.0,4.0,4.0,0.0,4.0,4.0,4.0,4.0,0.0,4.0,2.0,4.0,4.0,4.0,4.0
91.0,0.0,4196.923076923078,4231.794871794873,4199.487179487181,4203.589743589745,4189.743589743592,4202.051282051283,4205.128205128207,4201.0256410256425,4201.538461538463,4185.128205128207,4232.307692307694,4216.923076923078,4218.97435897436,4202.051282051283,826.0,2047.0,2048.0,0.0,0.0,4.0,4.0,4.0,4.0,0.0,4.0,4.0,4.0,4.0,0.0,4.0,2.0,4.0,4.0,4.0,4.0
92.0,0.0,4200.000000000002,4228.71794871795,4205.128205128207,4197.435897435899,4190.256410256412,4198.97435897436,4205.641025641027,4191.282051282053,4198.97435897436,4185.128205128207,4234.3589743589755,4212.307692307694,4216.923076923078,4204.615384615386,845.0,2047.0,2048.0,0.0,0.0,4.0,4.0,4.0,4.0,0.0,4.0,4.0,4.0,4.0,0.0,4.0,2.0,4.0,4.0,4.0,4.0
93.0,0.0,4190.256410256412,4218.46153846154,4186.153846153848,4193.333333333335,4185.641025641027,4187.692307692309,4190.256410256412,4184.615384615386,4196.410256410258,4185.128205128207,4229.743589743592,4210.769230769232,4200.512820512822,4193.846153846155,238.0,2047.0,2048.0,0.0,0.0,4.0,4.0,4.0,4.0,0.0,4.0,4.0,4.0,4.0,0.0,4.0,2.0,4.0,4.0,4.0,4.0
94.0,0.0,4187.179487179489,4214.3589743589755,4173.333333333335,4189.23076923077,4181.538461538463,4184.615384615386,4182.564102564104,4186.666666666668,4191.282051282053,4185.128205128207,4226.153846153848,4213.333333333335,4196.923076923078,4193.333333333335,857.0,2047.0,2048.0,0.0,0.0,4.0,4.0,4.0,4.0,0.0,4.0,4.0,4.0,4.0,0.0,4.0,2.0,4.0,4.0,4.0,4.0
95.0,0.0,4198.97435897436,4217.435897435899,4189.23076923077,4186.666666666668,4185.128205128207,4188.71794871795,4188.20512820513,4186.153846153848,4187.692307692309,4185.128205128207,4229.743589743592,4214.871794871797,4203.076923076925,4202.564102564104,826.0,2047.0,2048.0,0.0,0.0,4.0,4.0,4.0,4.0,0.0,4.0,4.0,4.0,4.0,0.0,4.0,2.0,4.0,4.0,4.0,4.0
96.0,0.0,4204.615384615386,4217.435897435899,4203.076923076925,4188.20512820513,4188.71794871795,4188.20512820513,4189.23076923077,4185.128205128207,4188.20512820513,4185.128205128207,4226.666666666668,4216.410256410258,4201.0256410256425,4203.076923076925,845.0,2047.0,2048.0,0.0,0.0,4.0,4.0,4.0,4.0,0.0,4.0,4.0,4.0,4.0,0.0,4.0,2.0,4.0,4.0,4.0,4.0
97.0,0.0,4195.384615384617,4213.846153846155,4192.307692307694,4185.641025641027,4185.641025641027,4185.128205128207,4185.641025641027,4185.128205128207,4187.179487179489,4185.128205128207,4210.256410256412,4212.307692307694,4191.794871794873,4197.435897435899,238.0,2047.0,2048.0,0.0,0.0,4.0,4.0,4.0,4.0,0.0,4.0,4.0,4.0,4.0,0.0,4.0,2.0,4.0,4.0,4.0,4.0
98.0,0.0,4188.71794871795,4207.179487179489,4183.589743589745,4176.923076923078,4184.615384615386,4181.538461538463,4178.97435897436,4181.538461538463,4182.564102564104,4185.128205128207,4192.8205128205145,4212.307692307694,4185.128205128207,4196.410256410258,857.0,2047.0,2048.0,0.0,0.0,4.0,4.0,4.0,4.0,0.0,4.0,4.0,4.0,4.0,0.0,4.0,2.0,4.0,4.0,4.0,4.0
99.0,0.0,4184.615384615386,4198.46153846154,4177.435897435899,4169.743589743592,4183.589743589745,4182.051282051283,4171.282051282053,4182.051282051283,4182.564102564104,4185.128205128207,4192.8205128205145,4213.846153846155,4187.692307692309,4196.923076923078,826.0,2047.0,2048.0,0.0,0.0,4.0,4.0,4.0,4.0,0.0,4.0,4.0,4.0,4.0,0.0,4.0,2.0,4.0,4.0,4.0,4.0
100.0,0.0,4183.076923076925,4204.102564102565,4177.94871794872,4173.846153846155,4184.102564102565,4188.20512820513,4177.435897435899,4187.179487179489,4186.153846153848,4185.128205128207,4198.97435897436,4212.307692307694,4194.871794871797,4196.410256410258,845.0,2047.0,2048.0,0.0,0.0,4.0,4.0,4.0,4.0,0.0,4.0,4.0,4.0,4.0,0.0,4.0,2.0,4.0,4.0,4.0,4.0
101.0,0.0,4195.384615384617,4222.564102564104,4197.435897435899,4177.94871794872,4187.692307692309,4186.666666666668,4183.076923076925,4184.102564102565,4184.615384615386,4185.128205128207,4190.256410256412,4214.871794871797,4192.8205128205145,4203.076923076925,238.0,2047.0,2048.0,0.0,0.0,4.0,4.0,4.0,4.0,0.0,4.0,4.0,4.0,4.0,0.0,4.0,2.0,4.0,4.0,4.0,4.0
102.0,0.0,4200.000000000002,4216.923076923078,4198.46153846154,4163.589743589745,4187.179487179489,4183.076923076925,4174.871794871797,4177.435897435899,4182.564102564104,4185.128205128207,4179.487179487181,4213.846153846155,4186.153846153848,4207.179487179489,857.0,2047.0,2048.0,0.0,0.0,4.0,4.0,4.0,4.0,0.0,4.0,4.0,4.0,4.0,0.0,4.0,2.0,4.0,4.0,4.0,4.0
103.0,0.0,4185.128205128207,4191.794871794873,4175.384615384617,4157.94871794872,4186.153846153848,4193.333333333335,4175.897435897437,4180.512820512822,4183.589743589745,4185.128205128207,4177.94871794872,4211.282051282053,4182.051282051283,4193.846153846155,826.0,2047.0,2048.0,0.0,0.0,4.0,4.0,4.0,4.0,0.0,4.0,4.0,4.0,4.0,0.0,4.0,2.0,4.0,4.0,4.0,4.0
104.0,0.0,4177.94871794872,4193.333333333335,4170.769230769232,4169.743589743592,4184.615384615386,4203.076923076925,4186.666666666668,4188.71794871795,4185.641025641027,4185.128205128207,4178.46153846154,4210.769230769232,4177.94871794872,4182.051282051283,845.0,2047.0,2048.0,0.0,0.0,4.0,4.0,4.0,4.0,0.0,4.0,4.0,4.0,4.0,0.0,4.0,2.0,4.0,4.0,4.0,4.0
105.0,0.0,4181.0256410256425,4210.769230769232,4185.128205128207,4169.743589743592,4187.692307692309,4202.051282051283,4190.769230769232,4189.743589743592,4184.102564102565,4185.128205128207,4167.179487179489,4210.256410256412,4166.666666666668,4182.564102564104,238.0,2047.0,2048.0,0.0,0.0,4.0,4.0,4.0,4.0,0.0,4.0,4.0,4.0,4.0,0.0,4.0,2.0,4.0,4.0,4.0,4.0
106.0,0.0,4178.46153846154,4209.23076923077,4184.615384615386,4168.20512820513,4190.769230769232,4200.512820512822,4193.333333333335,4187.179487179489,4183.076923076925,4185.128205128207,4154.871794871797,4209.743589743592,4162.051282051283,4181.0256410256425,857.0,2047.0,2048.0,0.0,0.0,4.0,4.0,4.0,4.0,0.0,4.0,4.0,4.0,4.0,0.0,4.0,2.0,4.0,4.0,4.0,4.0
107.0,0.0,4190.256410256412,4210.769230769232,4187.692307692309,4164.615384615386,4186.153846153848,4199.487179487181,4191.282051282053,4187.692307692309,4186.153846153848,4185.128205128207,4170.256410256412,4211.282051282053,4180.000000000002,4187.692307692309,826.0,2047.0,2048.0,0.0,0.0,4.0,4.0,4.0,4.0,0.0,4.0,4.0,4.0,4.0,0.0,4.0,2.0,4.0,4.0,4.0,4.0
108.0,0.0,4202.564102564104,4221.538461538463,4207.179487179489,4154.3589743589755,4186.153846153848,4197.94871794872,4183.076923076925,4186.153846153848,4186.153846153848,4185.128205128207,4179.487179487181,4220.000000000002,4183.589743589745,4201.538461538463,845.0,2047.0,2048.0,0.0,0.0,4.0,4.0,4.0,4.0,0.0,4.0,4.0,4.0,4.0,0.0,4.0,2.0,4.0,4.0,4.0,4.0
109.0,0.0,4190.769230769232,4218.97435897436,4199.487179487181,4161.538461538463,4186.153846153848,4198.97435897436,4183.076923076925,4184.615384615386,4183.076923076925,4185.128205128207,4157.435897435899,4220.512820512822,4173.333333333335,4195.897435897437,238.0,2047.0,2048.0,0.0,0.0,4.0,4.0,4.0,4.0,0.0,4.0,4.0,4.0,4.0,0.0,4.0,2.0,4.0,4.0,4.0,4.0
110.0,0.0,4190.769230769232,4220.512820512822,4189.23076923077,4175.897435897437,4186.666666666668,4203.076923076925,4189.23076923077,4190.769230769232,4188.71794871795,4185.128205128207,4161.0256410256425,4213.846153846155,4188.20512820513,4186.153846153848,857.0,2047.0,2048.0,0.0,0.0,4.0,4.0,4.0,4.0,0.0,4.0,4.0,4.0,4.0,0.0,4.0,2.0,4.0,4.0,4.0,4.0
111.0,0.0,4208.20512820513,4235.897435897437,4200.000000000002,4170.769230769232,4189.23076923077,4210.769230769232,4191.794871794873,4197.435897435899,4196.923076923078,4185.128205128207,4190.256410256412,4216.923076923078,4206.153846153848,4200.000000000002,826.0,2047.0,2048.0,0.0,0.0,4.0,4.0,4.0,4.0,0.0,4.0,4.0,4.0,4.0,0.0,4.0,2.0,4.0,4.0,4.0,4.0
112.0,0.0,4203.076923076925,4237.435897435899,4197.435897435899,4158.97435897436,4184.615384615386,4210.769230769232,4186.666666666668,4195.897435897437,4196.410256410258,4185.128205128207,4183.589743589745,4218.97435897436,4187.692307692309,4210.256410256412,845.0,2047.0,2048.0,0.0,0.0,4.0,4.0,4.0,4.0,0.0,4.0,4.0,4.0,4.0,0.0,4.0,2.0,4.0,4.0,4.0,4.0
113.0,0.0,4187.692307692309,4227.692307692309,4183.589743589745,4166.153846153848,4187.179487179489,4207.179487179489,4184.615384615386,4195.384615384617,4196.923076923078,4185.128205128207,4172.307692307694,4214.871794871797,4176.410256410258,4194.871794871797,238.0,2047.0,2048.0,0.0,0.0,4.0,4.0,4.0,4.0,0.0,4.0,4.0,4.0,4.0,0.0,4.0,2.0,4.0,4.0,4.0,4.0
114.0,0.0,4191.794871794873,4233.333333333335,4181.0256410256425,4180.512820512822,4191.282051282053,4213.333333333335,4195.384615384617,4202.564102564104,4204.102564102565,4185.128205128207,4188.71794871795,4212.307692307694,4205.128205128207,4186.153846153848,857.0,2047.0,2048.0,0.0,0.0,4.0,4.0,4.0,4.0,0.0,4.0,4.0,4.0,4.0,0.0,4.0,2.0,4.0,4.0,4.0,4.0
115.0,0.0,4198.97435897436,4245.128205128207,4194.871794871797,4186.666666666668,4188.20512820513,4216.923076923078,4205.641025641027,4202.564102564104,4203.589743589745,4185.128205128207,4189.23076923077,4213.333333333335,4221.538461538463,4194.3589743589755,826.0,2047.0,2048.0,0.0,0.0,4.0,4.0,4.0,4.0,0.0,4.0,4.0,4.0,4.0,0.0,4.0,2.0,4.0,4.0,4.0,4.0
116.0,0.0,4196.923076923078,4246.666666666668,4202.564102564104,4185.641025641027,4187.692307692309,4206.666666666668,4200.512820512822,4198.46153846154,4200.000000000002,4185.128205128207,4180.512820512822,4218.46153846154,4212.307692307694,4195.897435897437,845.0,2047.0,2048.0,0.0,0.0,4.0,4.0,4.0,4.0,0.0,4.0,4.0,4.0,4.0,0.0,4.0,2.0,4.0,4.0,4.0,4.0
117.0,0.0,4196.923076923078,4244.615384615386,4188.20512820513,4181.538461538463,4185.641025641027,4199.487179487181,4191.282051282053,4201.0256410256425,4202.564102564104,4185.128205128207,4186.153846153848,4215.897435897437,4217.435897435899,4194.3589743589755,238.0,2047.0,2048.0,0.0,0.0,4.0,4.0,4.0,4.0,0.0,4.0,4.0,4.0,4.0,0.0,4.0,2.0,4.0,4.0,4.0,4.0
118.0,0.0,4203.589743589745,4244.615384615386,4186.666666666668,4176.410256410258,4184.102564102565,4203.076923076925,4192.307692307694,4202.564102564104,4202.051282051283,4185.128205128207,4191.794871794873,4215.897435897437,4225.641025641027,4200.000000000002,857.0,2047.0,2048.0,0.0,0.0,4.0,4.0,4.0,4.0,0.0,4.0,4.0,4.0,4.0,0.0,4.0,2.0,4.0,4.0,4.0,4.0
119.0,0.0,4201.0256410256425,4243.076923076925,4198.97435897436,4170.256410256412,4186.153846153848,4203.589743589745,4199.487179487181,4201.538461538463,4201.538461538463,4185.128205128207,4200.000000000002,4218.97435897436,4210.769230769232,4201.538461538463,826.0,2047.0,2048.0,0.0,0.0,4.0,4.0,4.0,4.0,0.0,4.0,4.0,4.0,4.0,0.0,4.0,2.0,4.0,4.0,4.0,4.0
120.0,0.0,4192.8205128205145,4244.615384615386,4190.769230769232,4184.102564102565,4188.20512820513,4200.512820512822,4200.512820512822,4200.000000000002,4202.051282051283,4185.128205128207,4210.256410256412,4211.794871794873,4203.076923076925,4191.794871794873,845.0,2047.0,2048.0,0.0,0.0,4.0,4.0,4.0,4.0,0.0,4.0,4.0,4.0,4.0,0.0,4.0,2.0,4.0,4.0,4.0,4.0
121.0,0.0,4202.051282051283,4253.333333333335,4196.923076923078,4194.3589743589755,4190.769230769232,4203.589743589745,4200.000000000002,4201.0256410256425,4201.538461538463,4185.128205128207,4219.487179487181,4213.846153846155,4220.512820512822,4197.94871794872,238.0,2047.0,2048.0,0.0,0.0,4.0,4.0,4.0,4.0,0.0,4.0,4.0,4.0,4.0,0.0,4.0,2.0,4.0,4.0,4.0,4.0
122.0,0.0,4205.128205128207,4251.794871794873,4210.769230769232,4186.666666666668,4189.23076923077,4207.692307692309,4198.97435897436,4201.0256410256425,4202.564102564104,4185.128205128207,4230.769230769232,4220.512820512822,4223.589743589745,4212.307692307694,857.0,2047.0,2048.0,0.0,0.0,4.0,4.0,4.0,4.0,0.0,4.0,4.0,4.0,4.0,0.0,4.0,2.0,4.0,4.0,4.0,4.0
123.0,0.0,4197.435897435899,4245.128205128207,4197.435897435899,4189.743589743592,4187.692307692309,4204.102564102565,4193.846153846155,4196.923076923078,4202.051282051283,4185.128205128207,4228.71794871795,4217.435897435899,4210.769230769232,4208.71794871795,826.0,2047.0,2048.0,0.0,0.0,4.0,4.0,4.0,4.0,0.0,4.0,4.0,4.0,4.0,0.0,4.0,2.0,4.0,4.0,4.0,4.0
124.0,0.0,4205.128205128207,4253.846153846155,4190.256410256412,4203.076923076925,4185.641025641027,4203.589743589745,4193.333333333335,4197.435897435899,4200.512820512822,4185.128205128207,4223.076923076925,4216.923076923078,4217.94871794872,4210.769230769232,845.0,2047.0,2048.0,0.0,0.0,4.0,4.0,4.0,4.0,0.0,4.0,4.0,4.0,4.0,0.0,4.0,2.0,4.0,4.0,4.0,4.0
125.0,0.0,4215.897435897437,4260.000000000002,4201.538461538463,4204.102564102565,4184.615384615386,4212.307692307694,4202.051282051283,4205.128205128207,4205.128205128207,4185.128205128207,4229.23076923077,4219.487179487181,4225.641025641027,4217.94871794872,238.0,2047.0,2048.0,0.0,0.0,4.0,4.0,4.0,4.0,0.0,4.0,4.0,4.0,4.0,0.0,4.0,2.0,4.0,4.0,4.0,4.0
126.0,0.0,4204.615384615386,4250.769230769232,4205.128205128207,4191.282051282053,4189.743589743592,4215.384615384617,4205.641025641027,4203.076923076925,4202.051282051283,4185.128205128207,4227.179487179489,4218.46153846154,4210.769230769232,4208.20512820513,857.0,2047.0,2048.0,0.0,0.0,4.0,4.0,4.0,4.0,0.0,4.0,4.0,4.0,4.0,0.0,4.0,2.0,4.0,4.0,4.0,4.0
127.0,0.0,4192.8205128205145,4242.051282051283,4193.846153846155,4182.051282051283,4188.20512820513,4210.769230769232,4198.97435897436,4193.333333333335,4191.794871794873,4185.128205128207,4216.410256410258,4212.8205128205145,4198.46153846154,4196.410256410258,826.0,2047.0,2048.0,0.0,0.0,4.0,4.0,4.0,4.0,0.0,4.0,4.0,4.0,4.0,0.0,4.0,2.0,4.0,4.0,4.0,4.0
128.0,0.0,4206.153846153848,4247.692307692309,4191.282051282053,4190.256410256412,4185.128205128207,4214.3589743589755,4197.94871794872,4195.897435897437,4193.333333333335,4185.128205128207,4215.897435897437,4215.384615384617,4205.128205128207,4203.589743589745,845.0,2047.0,2048.0,0.0,0.0,4.0,4.0,4.0,4.0,0.0,4.0,4.0,4.0,4.0,0.0,4.0,2.0,4.0,4.0,4.0,4.0
0.0,0.0,4222.051282051283,4254.3589743589755,4204.102564102565,4204.102564102565,4185.641025641027,4223.589743589745,4202.564102564104,4203.076923076925,4202.051282051283,4185.128205128207,4225.641025641027,4223.076923076925,4214.871794871797,4216.410256410258,684.0,2047.0,2048.0,0.0,0.0,4.0,4.0,4.0,4.0,0.0,4.0,4.0,4.0,4.0,0.0,4.0,2.0,4.0,4.0,4.0,4.0
1.0,0.0,4213.846153846155,4247.692307692309,4208.20512820513,4199.487179487181,4184.615384615386,4215.897435897437,4203.076923076925,4201.538461538463,4202.564102564104,4185.128205128207,4221.0256410256425,4217.435897435899,4207.179487179489,4213.333333333335,832.0,2047.0,2048.0,0.0,0.0,4.0,4.0,4.0,4.0,0.0,4.0,4.0,4.0,4.0,0.0,4.0,2.0,4.0,4.0,4.0,4.0
2.0,0.0,4200.512820512822,4235.897435897437,4202.051282051283,4185.641025641027,4188.71794871795,4201.0256410256425,4200.000000000002,4194.3589743589755,4194.3589743589755,4185.128205128207,4198.97435897436,4213.333333333335,4189.743589743592,4197.435897435899,807.0,2047.0,2048.0,0.0,0.0,4.0,4.0,4.0,4.0,0.0,4.0,4.0,4.0,4.0,0.0,4.0,2.0,4.0,4.0,4.0,4.0
3.0,0.0,4200.512820512822,4227.692307692309,4193.333333333335,4184.615384615386,4189.23076923077,4201.0256410256425,4196.410256410258,4187.692307692309,4187.179487179489,4185.128205128207,4186.666666666668,4215.384615384617,4183.589743589745,4184.615384615386,787.0,2047.0,2048.0,0.0,0.0,4.0,4.0,4.0,4.0,0.0,4.0,4.0,4.0,4.0,0.0,4.0,2.0,4.0,4.0,4.0,4.0
4.0,0.0,4195.384615384617,4220.512820512822,4187.179487179489,4183.076923076925,4186.153846153848,4201.538461538463,4191.794871794873,4185.641025641027,4185.641025641027,4185.128205128207,4184.102564102565,4213.846153846155,4183.589743589745,4185.641025641027,0.0,2047.0,2048.0,0.0,0.0,4.0,4.0,4.0,4.0,0.0,4.0,4.0,4.0,4.0,0.0,4.0,2.0,4.0,4.0,4.0,4.0
5.0,0.0,4185.641025641027,4215.897435897437,4185.641025641027,4166.666666666668,4183.589743589745,4189.23076923077,4184.102564102565,4184.102564102565,4185.128205128207,4185.128205128207,4176.923076923078,4214.871794871797,4176.923076923078,4187.179487179489,782.0,2047.0,2048.0,0.0,0.0,4.0,4.0,4.0,4.0,0.0,4.0,4.0,4.0,4.0,0.0,4.0,2.0,4.0,4.0,4.0,4.0
6.0,0.0,4183.589743589745,4213.846153846155,4184.615384615386,4160.000000000002,4184.102564102565,4183.589743589745,4184.615384615386,4177.94871794872,4184.102564102565,4185.128205128207,4170.256410256412,4213.846153846155,4169.743589743592,4175.897435897437,799.0,2047.0,2048.0,0.0,0.0,4.0,4.0,4.0,4.0,0.0,4.0,4.0,4.0,4.0,0.0,4.0,2.0,4.0,4.0,4.0,4.0
7.0,0.0,4177.94871794872,4205.641025641027,4178.46153846154,4167.179487179489,4188.71794871795,4189.743589743592,4186.153846153848,4172.307692307694,4180.000000000002,4185.128205128207,4169.23076923077,4211.282051282053,4160.512820512822,4162.051282051283,804.0,2047.0,2048.0,0.0,0.0,4.0,4.0,4.0,4.0,0.0,4.0,4.0,4.0,4.0,0.0,4.0,2.0,4.0,4.0,4.0,4.0
8.0,0.0,4171.794871794873,4191.282051282053,4168.71794871795,4159.487179487181,4185.641025641027,4186.666666666668,4176.923076923078,4169.23076923077,4172.8205128205145,4185.128205128207,4165.128205128207,4206.153846153848,4151.794871794873,4157.435897435899,658.0,2047.0,2048.0,0.0,0.0,4.0,4.0,4.0,4.0,0.0,4.0,4.0,4.0,4.0,0.0,4.0,2.0,4.0,4.0,4.0,4.0
9.0,0.0,4169.743589743592,4186.153846153848,4169.743589743592,4138.46153846154,4185.641025641027,4174.3589743589755,4163.076923076925,4160.512820512822,4167.692307692309,4185.128205128207,4151.282051282053,4203.076923076925,4151.282051282053,4155.384615384617,0.0,2047.0,2048.0,0.0,0.0,4.0,4.0,4.0,4.0,0.0,4.0,4.0,4.0,4.0,0.0,4.0,2.0,4.0,4.0,4.0,4.0
10.0,0.0,4162.564102564104,4183.076923076925,4171.794871794873,4124.102564102565,4190.769230769232,4163.076923076925,4155.897435897437,4152.8205128205145,4166.153846153848,4185.128205128207,4140.512820512822,4205.641025641027,4143.076923076925,4150.769230769232,856.0,2047.0,2048.0,0.0,0.0,4.0,4.0,4.0,4.0,0.0,4.0,4.0,4.0,4.0,0.0,4.0,2.0,4.0,4.0,4.0,4.0
11.0,0.0,4151.794871794873,4163.076923076925,4158.46153846154,4111.794871794873,4187.179487179489,4151.794871794873,4155.384615384617,4154.3589743589755,4163.076923076925,4185.128205128207,4140.512820512822,4201.538461538463,4127.179487179489,4145.641025641027,826.0,2047.0,2048.0,0.0,0.0,4.0,4.0,4.0,4.0,0.0,4.0,4.0,4.0,4.0,0.0,4.0,2.0,4.0,4.0,4.0,4.0
12.0,0.0,4140.512820512822,4152.8205128205145,4141.0256410256425,4110.769230769232,4186.153846153848,4142.051282051283,4150.769230769232,4152.307692307694,4156.410256410258,4185.128205128207,4146.666666666668,4196.923076923078,4132.307692307694,4131.282051282053,847.0,2047.0,2048.0,0.0,0.0,4.0,4.0,4.0,4.0,0.0,4.0,4.0,4.0,4.0,0.0,4.0,2.0,4.0,4.0,4.0,4.0
13.0,0.0,4141.0256410256425,4173.846153846155,4143.589743589745,4109.23076923077,4189.23076923077,4138.97435897436,4142.051282051283,4143.076923076925,4152.307692307694,4185.128205128207,4131.794871794873,4203.076923076925,4140.512820512822,4130.769230769232,238.0,2047.0,2048.0,0.0,0.0,4.0,4.0,4.0,4.0,0.0,4.0,4.0,4.0,4.0,0.0,4.0,2.0,4.0,4.0,4.0,4.0
14.0,0.0,4153.846153846155,4178.46153846154,4165.641025641027,4086.1538461538476,4188.71794871795,4142.051282051283,4143.589743589745,4141.0256410256425,4153.333333333335,4185.128205128207,4118.97435897436,4207.692307692309,4125.128205128207,4152.307692307694,856.0,2047.0,2048.0,0.0,0.0,4.0,4.0,4.0,4.0,0.0,4.0,4.0,4.0,4.0,0.0,4.0,2.0,4.0,4.0,4.0,4.0
15.0,0.0,4142.051282051283,4148.71794871795,4151.794871794873,4093.333333333335,4186.666666666668,4140.512820512822,4137.435897435899,4135.384615384617,4149.23076923077,4185.128205128207,4135.384615384617,4196.923076923078,4113.333333333335,4141.538461538463,826.0,2047.0,2048.0,0.0,0.0,4.0,4.0,4.0,4.0,0.0,4.0,4.0,4.0,4.0,0.0,4.0,2.0,4.0,4.0,4.0,4.0
16.0,0.0,4121.0256410256425,4150.256410256412,4115.897435897437,4122.564102564104,4183.076923076925,4134.3589743589755,4118.97435897436,4122.051282051283,4141.538461538463,4185.128205128207,4131.794871794873,4186.153846153848,4123.076923076925,4111.794871794873,0.0,2047.0,2048.0,0.0,0.0,4.0,4.0,4.0,4.0,0.0,4.0,4.0,4.0,4.0,0.0,4.0,2.0,4.0,4.0,4.0,4.0
17.0,0.0,4140.000000000002,4183.076923076925,4139.487179487181,4108.20512820513,4185.128205128207,4135.384615384617,4122.564102564104,4125.128205128207,4144.102564102565,4185.128205128207,4106.666666666668,4197.435897435899,4133.333333333335,4127.179487179489,0.0,2047.0,2048.0,0.0,0.0,4.0,4.0,4.0,4.0,0.0,4.0,4.0,4.0,4.0,0.0,4.0,2.0,4.0,4.0,4.0,4.0
18.0,0.0,4155.897435897437,4173.846153846155,4165.128205128207,4095.8974358974374,4188.71794871795,4137.94871794872,4136.410256410258,4134.3589743589755,4150.769230769232,4185.128205128207,4118.97435897436,4204.615384615386,4131.794871794873,4146.153846153848,0.0,2047.0,2048.0,0.0,0.0,4.0,4.0,4.0,4.0,0.0,4.0,4.0,4.0,4.0,0.0,4.0,2.0,4.0,4.0,4.0,4.0
19.0,0.0,4132.8205128205145,4152.307692307694,4133.846153846155,4122.051282051283,4188.71794871795,4133.846153846155,4126.153846153848,4128.71794871795,4151.282051282053,4185.128205128207,4145.128205128207,4190.256410256412,4130.256410256412,4120.512820512822,0.0,2047.0,2048.0,0.0,0.0,4.0,4.0,4.0,4.0,0.0,4.0,4.0,4.0,4.0,0.0,4.0,2.0,4.0,4.0,4.0,4.0
20.0,0.0,4119.487179487181,4166.153846153848,4120.512820512822,4124.615384615386,4189.23076923077,4127.179487179489,4109.743589743592,4120.512820512822,4145.128205128207,4185.128205128207,4136.923076923078,4184.102564102565,4137.435897435899,4102.564102564104,0.0,2047.0,2048.0,0.0,0.0,4.0,4.0,4.0,4.0,0.0,4.0,4.0,4.0,4.0,0.0,4.0,2.0,4.0,4.0,4.0,4.0
21.0,0.0,4118.97435897436,4170.769230769232,4125.128205128207,4104.615384615386,4188.20512820513,4122.051282051283,4109.743589743592,4124.102564102565,4142.051282051283,4185.128205128207,4123.076923076925,4185.128205128207,4140.000000000002,4106.153846153848,0.0,2047.0,2048.0,0.0,0.0,4.0,4.0,4.0,4.0,0.0,4.0,4.0,4.0,4.0,0.0,4.0,2.0,4.0,4.0,4.0,4.0
22.0,0.0,4113.846153846155,4158.46153846154,4115.897435897437,4110.769230769232,4190.256410256412,4122.564102564104,4114.3589743589755,4122.564102564104,4143.076923076925,4185.128205128207,4130.769230769232,4185.128205128207,4138.97435897436,4110.256410256412,0.0,2047.0,2048.0,0.0,0.0,4.0,4.0,4.0,4.0,0.0,4.0,4.0,4.0,4.0,0.0,4.0,2.0,4.0,4.0,4.0,4.0
23.0,0.0,4120.512820512822,4167.179487179489,4119.487179487181,4115.384615384617,4184.615384615386,4130.769230769232,4116.410256410258,4118.46153846154,4147.692307692309,4185.128205128207,4146.153846153848,4190.769230769232,4140.000000000002,4123.589743589745,0.0,2047.0,2048.0,0.0,0.0,4.0,4.0,4.0,4.0,0.0,4.0,4.0,4.0,4.0,0.0,4.0,2.0,4.0,4.0,4.0,4.0
24.0,0.0,4122.051282051283,4173.333333333335,4121.0256410256425,4113.333333333335,4180.000000000002,4135.897435897437,4122.051282051283,4121.0256410256425,4149.23076923077,4185.128205128207,4157.435897435899,4190.769230769232,4132.8205128205145,4122.564102564104,0.0,2047.0,2048.0,0.0,0.0,4.0,4.0,4.0,4.0,0.0,4.0,4.0,4.0,4.0,0.0,4.0,2.0,4.0,4.0,4.0,4.0
25.0,0.0,4111.794871794873,4156.923076923078,4124.102564102565,4127.692307692309,4190.769230769232,4135.384615384617,4126.666666666668,4122.564102564104,4141.0256410256425,4185.128205128207,4148.71794871795,4188.20512820513,4118.97435897436,4102.564102564104,0.0,2047.0,2048.0,0.0,0.0,4.0,4.0,4.0,4.0,0.0,4.0,4.0,4.0,4.0,0.0,4.0,2.0,4.0,4.0,4.0,4.0
26.0,0.0,4112.307692307694,4154.871794871797,4134.871794871797,4138.97435897436,4192.307692307694,4134.871794871797,4125.641025641027,4122.564102564104,4136.410256410258,4185.128205128207,4140.512820512822,4187.692307692309,4124.615384615386,4108.71794871795,0.0,2047.0,2048.0,0.0,0.0,4.0,4.0,4.0,4.0,0.0,4.0,4.0,4.0,4.0,0.0,4.0,2.0,4.0,4.0,4.0,4.0
27.0,0.0,4122.051282051283,4164.102564102565,4128.71794871795,4141.538461538463,4184.102564102565,4132.307692307694,4122.051282051283,4124.102564102565,4139.487179487181,4185.128205128207,4150.769230769232,4188.71794871795,4138.97435897436,4126.666666666668,0.0,2047.0,2048.0,0.0,0.0,4.0,4.0,4.0,4.0,0.0,4.0,4.0,4.0,4.0,0.0,4.0,2.0,4.0,4.0,4.0,4.0
28.0,0.0,4125.128205128207,4157.435897435899,4116.410256410258,4138.46153846154,4181.0256410256425,4128.71794871795,4123.076923076925,4123.076923076925,4144.102564102565,4185.128205128207,4151.282051282053,4192.8205128205145,4134.871794871797,4117.435897435899,0.0,2047.0,2048.0,0.0,0.0,4.0,4.0,4.0,4.0,0.0,4.0,4.0,4.0,4.0,0.0,4.0,2.0,4.0,4.0,4.0,4.0
29.0,0.0,4120.000000000002,4149.743589743592,4123.076923076925,4129.743589743592,4185.128205128207,4127.179487179489,4123.589743589745,4116.923076923078,4142.051282051283,4185.128205128207,4140.512820512822,4189.743589743592,4127.179487179489,4107.179487179489,0.0,2047.0,2048.0,0.0,0.0,4.0,4.0,4.0,4.0,0.0,4.0,4.0,4.0,4.0,0.0,4.0,2.0,4.0,4.0,4.0,4.0
30.0,0.0,4121.0256410256425,4152.307692307694,4136.923076923078,4129.23076923077,4190.769230769232,4129.23076923077,4123.076923076925,4117.435897435899,4141.0256410256425,4185.128205128207,4144.102564102565,4190.256410256412,4132.8205128205145,4115.384615384617,0.0,2047.0,2048.0,0.0,0.0,4.0,4.0,4.0,4.0,0.0,4.0,4.0,4.0,4.0,0.0,4.0,2.0,4.0,4.0,4.0,4.0
31.0,0.0,4129.23076923077,4156.410256410258,4135.897435897437,4133.846153846155,4186.153846153848,4133.333333333335,4125.641025641027,4126.153846153848,4148.71794871795,4185.128205128207,4157.435897435899,4195.384615384617,4141.538461538463,4126.666666666668,0.0,2047.0,2048.0,0.0,0.0,4.0,4.0,4.0,4.0,0.0,4.0,4.0,4.0,4.0,0.0,4.0,2.0,4.0,4.0,4.0,4.0
32.0,0.0,4135.897435897437,4155.384615384617,4134.871794871797,4128.71794871795,4183.076923076925,4135.384615384617,4126.153846153848,4126.666666666668,4150.769230769232,4185.128205128207,4160.000000000002,4194.871794871797,4142.051282051283,4127.179487179489,0.0,2047.0,2048.0,0.0,0.0,4.0,4.0,4.0,4.0,0.0,4.0,4.0,4.0,4.0,0.0,4.0,2.0,4.0,4.0,4.0,4.0
33.0,0.0,4140.000000000002,4154.871794871797,4146.153846153848,4125.641025641027,4185.641025641027,4136.923076923078,4129.23076923077,4123.589743589745,4150.769230769232,4185.128205128207,4158.97435897436,4194.871794871797,4142.051282051283,4128.71794871795,0.0,2047.0,2048.0,0.0,0.0,4.0,4.0,4.0,4.0,0.0,4.0,4.0,4.0,4.0,0.0,4.0,2.0,4.0,4.0,4.0,4.0
34.0,0.0,4144.102564102565,4157.94871794872,4152.307692307694,4128.20512820513,4187.692307692309,4140.000000000002,4136.923076923078,4131.794871794873,4154.871794871797,4185.128205128207,4158.46153846154,4194.871794871797,4144.615384615386,4135.384615384617,0.0,2047.0,2048.0,0.0,0.0,4.0,4.0,4.0,4.0,0.0,4.0,4.0,4.0,4.0,0.0,4.0,2.0,4.0,4.0,4.0,4.0
35.0,0.0,4139.487179487181,4148.20512820513,4148.71794871795,4118.46153846154,4188.71794871795,4140.000000000002,4139.487179487181,4137.94871794872,4154.3589743589755,4185.128205128207,4150.769230769232,4196.923076923078,4137.435897435899,4132.307692307694,0.0,2047.0,2048.0,0.0,0.0,4.0,4.0,4.0,4.0,0.0,4.0,4.0,4.0,4.0,0.0,4.0,2.0,4.0,4.0,4.0,4.0
36.0,0.0,4134.3589743589755,4133.846153846155,4144.615384615386,4114.871794871797,4184.102564102565,4134.871794871797,4135.384615384617,4132.307692307694,4149.23076923077,4185.128205128207,4143.076923076925,4197.94871794872,4136.923076923078,4130.769230769232,0.0,2047.0,2048.0,0.0,0.0,4.0,4.0,4.0,4.0,0.0,4.0,4.0,4.0,4.0,0.0,4.0,2.0,4.0,4.0,4.0,4.0
37.0,0.0,4142.051282051283,4142.051282051283,4149.23076923077,4122.051282051283,4183.076923076925,4133.846153846155,4129.743589743592,4126.666666666668,4149.23076923077,4185.128205128207,4136.923076923078,4197.94871794872,4137.435897435899,4137.94871794872,0.0,2047.0,2048.0,0.0,0.0,4.0,4.0,4.0,4.0,0.0,4.0,4.0,4.0,4.0,0.0,4.0,2.0,4.0,4.0,4.0,4.0
38.0,0.0,4147.179487179489,4156.410256410258,4147.692307692309,4116.410256410258,4183.589743589745,4136.410256410258,4127.179487179489,4126.153846153848,4149.23076923077,4185.128205128207,4133.333333333335,4200.512820512822,4123.589743589745,4134.871794871797,0.0,2047.0,2048.0,0.0,0.0,4.0,4.0,4.0,4.0,0.0,4.0,4.0,4.0,4.0,0.0,4.0,2.0,4.0,4.0,4.0,4.0
39.0,0.0,4133.846153846155,4145.641025641027,4128.71794871795,4111.282051282053,4181.0256410256425,4137.94871794872,4127.179487179489,4129.23076923077,4146.666666666668,4185.128205128207,4135.384615384617,4193.333333333335,4112.8205128205145,4115.384615384617,0.0,2047.0,2048.0,0.0,0.0,4.0,4.0,4.0,4.0,0.0,4.0,4.0,4.0,4.0,0.0,4.0,2.0,4.0,4.0,4.0,4.0
40.0,0.0,4130.256410256412,4141.538461538463,4133.846153846155,4125.641025641027,4189.743589743592,4141.538461538463,4136.410256410258,4137.94871794872,4151.282051282053,4185.128205128207,4130.256410256412,4192.307692307694,4117.94871794872,4118.97435897436,0.0,2047.0,2048.0,0.0,0.0,4.0,4.0,4.0,4.0,0.0,4.0,4.0,4.0,4.0,0.0,4.0,2.0,4.0,4.0,4.0,4.0
41.0,0.0,4151.794871794873,4158.46153846154,4164.615384615386,4124.615384615386,4195.897435897437,4144.102564102565,4148.71794871795,4145.128205128207,4155.384615384617,4185.128205128207,4123.589743589745,4203.076923076925,4126.153846153848,4151.282051282053,0.0,2047.0,2048.0,0.0,0.0,4.0,4.0,4.0,4.0,0.0,4.0,4.0,4.0,4.0,0.0,4.0,2.0,4.0,4.0,4.0,4.0
42.0,0.0,4155.384615384617,4146.666666666668,4165.641025641027,4104.102564102565,4188.71794871795,4142.051282051283,4146.666666666668,4143.589743589745,4153.333333333335,4185.128205128207,4132.8205128205145,4201.0256410256425,4120.512820512822,4149.23076923077,0.0,2047.0,2048.0,0.0,0.0,4.0,4.0,4.0,4.0,0.0,4.0,4.0,4.0,4.0,0.0,4.0,2.0,4.0,4.0,4.0,4.0
43.0,0.0,4130.769230769232,4125.128205128207,4125.641025641027,4110.256410256412,4182.051282051283,4141.538461538463,4136.923076923078,4143.589743589745,4154.3589743589755,4185.128205128207,4140.000000000002,4189.743589743592,4118.97435897436,4113.333333333335,0.0,2047.0,2048.0,0.0,0.0,4.0,4.0,4.0,4.0,0.0,4.0,4.0,4.0,4.0,0.0,4.0,2.0,4.0,4.0,4.0,4.0
44.0,0.0,4131.282051282053,4146.153846153848,4122.564102564104,4124.102564102565,4183.076923076925,4143.076923076925,4141.538461538463,4149.743589743592,4156.923076923078,4185.128205128207,4122.051282051283,4194.871794871797,4129.23076923077,4129.743589743592,0.0,2047.0,2048.0,0.0,0.0,4.0,4.0,4.0,4.0,0.0,4.0,4.0,4.0,4.0,0.0,4.0,2.0,4.0,4.0,4.0,4.0
45.0,0.0,4162.051282051283,4165.128205128207,4177.94871794872,4102.051282051283,4189.23076923077,4144.102564102565,4157.435897435899,4154.3589743589755,4158.46153846154,4185.128205128207,4117.435897435899,4211.794871794873,4135.897435897437,4175.897435897437,0.0,2047.0,2048.0,0.0,0.0,4.0,4.0,4.0,4.0,0.0,4.0,4.0,4.0,4.0,0.0,4.0,2.0,4.0,4.0,4.0,4.0
46.0,0.0,4157.435897435899,4141.0256410256425,4174.3589743589755,4086.1538461538476,4184.615384615386,4144.102564102565,4155.384615384617,4155.384615384617,4161.538461538463,4185.128205128207,4139.487179487181,4203.589743589745,4136.410256410258,4152.307692307694,0.0,2047.0,2048.0,0.0,0.0,4.0,4.0,4.0,4.0,0.0,4.0,4.0,4.0,4.0,0.0,4.0,2.0,4.0,4.0,4.0,4.0
47.0,0.0,4125.128205128207,4134.871794871797,4111.794871794873,4108.71794871795,4180.000000000002,4147.179487179489,4138.97435897436,4151.794871794873,4160.512820512822,4185.128205128207,4136.923076923078,4184.615384615386,4138.97435897436,4105.128205128207,0.0,2047.0,2048.0,0.0,0.0,4.0,4.0,4.0,4.0,0.0,4.0,4.0,4.0,4.0,0.0,4.0,2.0,4.0,4.0,4.0,4.0
48.0,0.0,4143.076923076925,4167.179487179489,4138.97435897436,4118.46153846154,4189.743589743592,4152.8205128205145,4144.102564102565,4150.769230769232,4155.897435897437,4185.128205128207,4109.23076923077,4200.512820512822,4134.871794871797,4138.46153846154,0.0,2047.0,2048.0,0.0,0.0,4.0,4.0,4.0,4.0,0.0,4.0,4.0,4.0,4.0,0.0,4.0,2.0,4.0,4.0,4.0,4.0
49.0,0.0,4176.410256410258,4168.20512820513,4205.128205128207,4107.692307692309,4191.282051282053,4156.923076923078,4160.512820512822,4157.94871794872,4155.897435897437,4185.128205128207,4109.743589743592,4213.846153846155,4123.589743589745,4181.0256410256425,0.0,2047.0,2048.0,0.0,0.0,4.0,4.0,4.0,4.0,0.0,4.0,4.0,4.0,4.0,0.0,4.0,2.0,4.0,4.0,4.0,4.0
50.0,0.0,4148.20512820513,4147.179487179489,4163.589743589745,4122.051282051283,4185.128205128207,4157.435897435899,4154.871794871797,4155.897435897437,4157.435897435899,4185.128205128207,4139.487179487181,4196.410256410258,4125.641025641027,4142.564102564104,0.0,2047.0,2048.0,0.0,0.0,4.0,4.0,4.0,4.0,0.0,4.0,4.0,4.0,4.0,0.0,4.0,2.0,4.0,4.0,4.0,4.0
51.0,0.0,4118.46153846154,4156.410256410258,4104.102564102565,4132.307692307694,4182.051282051283,4153.333333333335,4141.538461538463,4142.564102564104,4156.923076923078,4185.128205128207,4141.0256410256425,4184.615384615386,4141.538461538463,4107.179487179489,0.0,2047.0,2048.0,0.0,0.0,4.0,4.0,4.0,4.0,0.0,4.0,4.0,4.0,4.0,0.0,4.0,2.0,4.0,4.0,4.0,4.0
52.0,0.0,4138.97435897436,4167.179487179489,4142.051282051283,4117.435897435899,4186.153846153848,4149.743589743592,4148.20512820513,4143.076923076925,4154.871794871797,4185.128205128207,4112.307692307694,4194.871794871797,4143.589743589745,4129.23076923077,0.0,2047.0,2048.0,0.0,0.0,4.0,4.0,4.0,4.0,0.0,4.0,4.0,4.0,4.0,0.0,4.0,2.0,4.0,4.0,4.0,4.0
53.0,0.0,4152.307692307694,4158.46153846154,4181.538461538463,4124.102564102565,4190.769230769232,4152.8205128205145,4158.46153846154,4150.769230769232,4152.8205128205145,4185.128205128207,4110.769230769232,4206.153846153848,4127.692307692309,4149.23076923077,0.0,2047.0,2048.0,0.0,0.0,4.0,4.0,4.0,4.0,0.0,4.0,4.0,4.0,4.0,0.0,4.0,2.0,4.0,4.0,4.0,4.0
54.0,0.0,4144.102564102565,4164.102564102565,4156.410256410258,4145.641025641027,4186.153846153848,4152.8205128205145,4150.769230769232,4147.179487179489,4154.3589743589755,4185.128205128207,4137.94871794872,4200.512820512822,4126.666666666668,4145.641025641027,0.0,2047.0,2048.0,0.0,0.0,4.0,4.0,4.0,4.0,0.0,4.0,4.0,4.0,4.0,0.0,4.0,2.0,4.0,4.0,4.0,4.0
55.0,0.0,4138.46153846154,4171.794871794873,4138.97435897436,4141.538461538463,4185.641025641027,4140.000000000002,4135.384615384617,4135.384615384617,4154.3589743589755,4185.128205128207,4142.051282051283,4193.333333333335,4143.589743589745,4129.743589743592,0.0,2047.0,2048.0,0.0,0.0,4.0,4.0,4.0,4.0,0.0,4.0,4.0,4.0,4.0,0.0,4.0,2.0,4.0,4.0,4.0,4.0
56.0,0.0,4135.897435897437,4166.153846153848,4146.666666666668,4141.538461538463,4186.153846153848,4135.897435897437,4132.307692307694,4134.3589743589755,4152.8205128205145,4185.128205128207,4135.897435897437,4194.871794871797,4155.384615384617,4125.128205128207,0.0,2047.0,2048.0,0.0,0.0,4.0,4.0,4.0,4.0,0.0,4.0,4.0,4.0,4.0,0.0,4.0,2.0,4.0,4.0,4.0,4.0
57.0,0.0,4141.538461538463,4176.923076923078,4151.282051282053,4155.384615384617,4184.102564102565,4148.71794871795,4144.615384615386,4145.128205128207,4155.384615384617,4185.128205128207,4141.0256410256425,4195.897435897437,4156.410256410258,4143.589743589745,0.0,2047.0,2048.0,0.0,0.0,4.0,4.0,4.0,4.0,0.0,4.0,4.0,4.0,4.0,0.0,4.0,2.0,4.0,4.0,4.0,4.0
58.0,0.0,4148.71794871795,4190.256410256412,4161.538461538463,4155.384615384617,4188.20512820513,4153.846153846155,4152.8205128205145,4148.20512820513,4153.333333333335,4185.128205128207,4139.487179487181,4199.487179487181,4152.307692307694,4153.333333333335,0.0,2047.0,2048.0,0.0,0.0,4.0,4.0,4.0,4.0,0.0,4.0,4.0,4.0,4.0,0.0,4.0,2.0,4.0,4.0,4.0,4.0
59.0,0.0,4141.538461538463,4183.076923076925,4162.051282051283,4162.051282051283,4190.769230769232,4151.282051282053,4154.871794871797,4144.615384615386,4151.794871794873,4185.128205128207,4144.615384615386,4195.897435897437,4154.3589743589755,4138.97435897436,0.0,2047.0,2048.0,0.0,0.0,4.0,4.0,4.0,4.0,0.0,4.0,4.0,4.0,4.0,0.0,4.0,2.0,4.0,4.0,4.0,4.0
60.0,0.0,4144.102564102565,4182.051282051283,4158.46153846154,4178.46153846154,4190.256410256412,4155.384615384617,4161.538461538463,4150.256410256412,4160.512820512822,4185.128205128207,4164.615384615386,4196.410256410258,4161.538461538463,4141.0256410256425,0.0,2047.0,2048.0,0.0,0.0,4.0,4.0,4.0,4.0,0.0,4.0,4.0,4.0,4.0,0.0,4.0,2.0,4.0,4.0,4.0,4.0
61.0,0.0,4159.487179487181,4188.20512820513,4160.512820512822,4177.435897435899,4186.153846153848,4157.94871794872,4158.97435897436,4156.923076923078,4163.076923076925,4185.128205128207,4174.871794871797,4202.564102564104,4165.128205128207,4159.487179487181,0.0,2047.0,2048.0,0.0,0.0,4.0,4.0,4.0,4.0,0.0,4.0,4.0,4.0,4.0,0.0,4.0,2.0,4.0,4.0,4.0,4.0
62.0,0.0,4155.897435897437,4183.076923076925,4157.94871794872,4168.20512820513,4184.615384615386,4151.794871794873,4150.256410256412,4152.307692307694,4160.000000000002,4185.128205128207,4171.282051282053,4199.487179487181,4165.641025641027,4155.384615384617,0.0,2047.0,2048.0,0.0,0.0,4.0,4.0,4.0,4.0,0.0,4.0,4.0,4.0,4.0,0.0,4.0,2.0,4.0,4.0,4.0,4.0
63.0,0.0,4144.102564102565,4174.3589743589755,4158.46153846154,4165.128205128207,4189.23076923077,4151.282051282053,4158.97435897436,4154.3589743589755,4162.051282051283,4185.128205128207,4168.71794871795,4199.487179487181,4162.564102564104,4138.97435897436,0.0,2047.0,2048.0,0.0,0.0,4.0,4.0,4.0,4.0,0.0,4.0,4.0,4.0,4.0,0.0,4.0,2.0,4.0,4.0,4.0,4.0
64.0,0.0,4140.512820512822,4168.71794871795,4153.846153846155,4162.051282051283,4186.666666666668,4164.102564102565,4173.846153846155,4169.23076923077,4171.282051282053,4185.128205128207,4169.23076923077,4201.538461538463,4154.871794871797,4138.46153846154,684.0,2047.0,2048.0,0.0,0.0,4.0,4.0,4.0,4.0,0.0,4.0,4.0,4.0,4.0,0.0,4.0,2.0,4.0,4.0,4.0,4.0
65.0,0.0,4147.692307692309,4172.8205128205145,4154.3589743589755,4166.153846153848,4185.128205128207,4175.897435897437,4177.94871794872,4179.487179487181,4179.487179487181,4185.128205128207,4176.410256410258,4203.076923076925,4157.94871794872,4151.794871794873,831.0,2047.0,2048.0,0.0,0.0,4.0,4.0,4.0,4.0,0.0,4.0,4.0,4.0,4.0,0.0,4.0,2.0,4.0,4.0,4.0,4.0
66.0,0.0,4161.538461538463,4185.128205128207,4170.769230769232,4174.871794871797,4186.153846153848,4168.71794871795,4172.8205128205145,4176.410256410258,4179.487179487181,4185.128205128207,4190.769230769232,4208.71794871795,4172.8205128205145,4166.153846153848,807.0,2047.0,2048.0,0.0,0.0,4.0,4.0,4.0,4.0,0.0,4.0,4.0,4.0,4.0,0.0,4.0,2.0,4.0,4.0,4.0,4.0
67.0,0.0,4162.564102564104,4182.051282051283,4171.794871794873,4171.794871794873,4185.128205128207,4154.3589743589755,4166.666666666668,4171.282051282053,4172.307692307694,4185.128205128207,4194.871794871797,4209.23076923077,4174.871794871797,4168.20512820513,787.0,2047.0,2048.0,0.0,0.0,4.0,4.0,4.0,4.0,0.0,4.0,4.0,4.0,4.0,0.0,4.0,2.0,4.0,4.0,4.0,4.0
68.0,0.0,4153.846153846155,4173.846153846155,4164.615384615386,4166.666666666668,4188.71794871795,4150.256410256412,4163.076923076925,4165.641025641027,4166.153846153848,4185.128205128207,4183.589743589745,4207.692307692309,4161.538461538463,4159.487179487181,0.0,2047.0,2048.0,0.0,0.0,4.0,4.0,4.0,4.0,0.0,4.0,4.0,4.0,4.0,0.0,4.0,2.0,4.0,4.0,4.0,4.0
69.0,0.0,4152.8205128205145,4173.846153846155,4165.128205128207,4169.23076923077,4187.692307692309,4152.307692307694,4164.615384615386,4160.000000000002,4168.71794871795,4185.128205128207,4174.871794871797,4205.128205128207,4157.94871794872,4152.307692307694,782.0,2047.0,2048.0,0.0,0.0,4.0,4.0,4.0,4.0,0.0,4.0,4.0,4.0,4.0,0.0,4.0,2.0,4.0,4.0,4.0,4.0
70.0,0.0,4163.589743589745,4174.871794871797,4169.743589743592,4168.71794871795,4186.153846153848,4154.871794871797,4169.23076923077,4159.487179487181,4169.23076923077,4185.128205128207,4174.3589743589755,4201.538461538463,4166.666666666668,4157.94871794872,799.0,2047.0,2048.0,0.0,0.0,4.0,4.0,4.0,4.0,0.0,4.0,4.0,4.0,4.0,0.0,4.0,2.0,4.0,4.0,4.0,4.0
71.0,0.0,4172.8205128205145,4174.871794871797,4178.46153846154,4158.46153846154,4188.20512820513,4153.846153846155,4166.153846153848,4161.538461538463,4166.153846153848,4185.128205128207,4164.615384615386,4207.692307692309,4174.3589743589755,4171.794871794873,831.0,2047.0,2048.0,0.0,0.0,4.0,4.0,4.0,4.0,0.0,4.0,4.0,4.0,4.0,0.0,4.0,2.0,4.0,4.0,4.0,4.0
