COUNTER,INTERPOLATED,AF3,F7,F3,FC5,T7,P7,O1,O2,P8,T8,FC6,F4,F8,AF4,RAW_CQ,GYROX,GYROY,MARKER,SYNC,CQ_AF3,CQ_F7,CQ_F3,CQ_FC5,CQ_T7,CQ_P7,CQ_O1,CQ_O2,CQ_P8,CQ_T8,CQ_FC6,CQ_F4,CQ_F8,CQ_AF4,CQ_CMS,CQ_DRL
64.0,0.0,4142.564102564104,4158.46153846154,4151.794871794873,4072.3076923076937,4181.538461538463,4257.94871794872,4136.923076923078,4156.410256410258,4024.102564102566,4185.641025641027,4151.282051282053,4214.871794871797,4122.564102564104,4173.333333333335,653.0,2047.0,2048.0,0.0,0.0,0.0,0.0,4.0,0.0,0.0,0.0,0.0,0.0,0.0,0.0,0.0,0.0,0.0,0.0,4.0,4.0
65.0,0.0,4135.384615384617,4153.846153846155,4147.692307692309,4071.7948717948734,4177.94871794872,4245.128205128207,4133.846153846155,4160.512820512822,4006.6666666666683,4185.128205128207,4141.0256410256425,4205.128205128207,4119.487179487181,4163.589743589745,812.0,2047.0,2048.0,0.0,0.0,0.0,0.0,4.0,4.0,0.0,0.0,0.0,0.0,0.0,0.0,0.0,0.0,0.0,0.0,4.0,4.0
66.0,0.0,4126.153846153848,4137.94871794872,4144.615384615386,4066.1538461538476,4186.666666666668,4241.0256410256425,4126.666666666668,4155.897435897437,4002.0512820512836,4186.666666666668,4134.3589743589755,4211.794871794873,4115.384615384617,4145.641025641027,799.0,2047.0,2048.0,0.0,0.0,4.0,0.0,4.0,4.0,0.0,0.0,0.0,0.0,0.0,0.0,0.0,0.0,0.0,0.0,4.0,4.0
67.0,0.0,4114.3589743589755,4122.051282051283,4129.743589743592,4056.9230769230785,4188.71794871795,4218.97435897436,4125.128205128207,4158.46153846154,4012.3076923076937,4187.179487179489,4128.71794871795,4203.076923076925,4107.692307692309,4129.23076923077,764.0,2047.0,2048.0,0.0,0.0,4.0,4.0,4.0,4.0,0.0,0.0,0.0,0.0,0.0,0.0,0.0,0.0,0.0,0.0,4.0,4.0
68.0,0.0,4107.179487179489,4110.769230769232,4131.282051282053,4054.8717948717963,4185.128205128207,4162.051282051283,4119.487179487181,4156.410256410258,4018.9743589743603,4186.666666666668,4123.589743589745,4209.743589743592,4104.102564102565,4125.641025641027,0.0,2047.0,2048.0,0.0,0.0,4.0,4.0,4.0,4.0,0.0,0.0,0.0,0.0,0.0,0.0,0.0,0.0,0.0,0.0,4.0,4.0
69.0,0.0,4099.487179487181,4101.538461538463,4131.282051282053,4057.9487179487196,4182.051282051283,4108.20512820513,4113.846153846155,4174.871794871797,4033.333333333335,4186.153846153848,4124.102564102565,4210.769230769232,4097.435897435899,4119.487179487181,770.0,2047.0,2048.0,0.0,0.0,4.0,4.0,4.0,4.0,0.0,4.0,0.0,0.0,0.0,0.0,0.0,0.0,0.0,0.0,4.0,4.0
70.0,0.0,4097.435897435899,4102.051282051283,4120.000000000002,4060.0000000000014,4182.051282051283,4094.358974358976,4115.384615384617,4154.3589743589755,4025.641025641027,4185.641025641027,4116.410256410258,4200.512820512822,4083.0769230769247,4105.128205128207,817.0,2047.0,2048.0,0.0,0.0,4.0,4.0,4.0,4.0,0.0,4.0,4.0,0.0,0.0,0.0,0.0,0.0,0.0,0.0,4.0,4.0
71.0,0.0,4112.8205128205145,4110.769230769232,4135.897435897437,4074.358974358976,4189.23076923077,4111.282051282053,4121.538461538463,4078.9743589743603,4004.615384615386,4186.153846153848,4117.435897435899,4210.256410256412,4091.2820512820526,4113.846153846155,789.0,2047.0,2048.0,0.0,0.0,4.0,4.0,4.0,4.0,0.0,4.0,4.0,4.0,0.0,0.0,0.0,0.0,0.0,0.0,4.0,4.0
72.0,0.0,4127.179487179489,4123.076923076925,4150.769230769232,4094.8717948717963,4185.128205128207,4128.20512820513,4137.94871794872,4084.102564102566,4025.1282051282064,4187.179487179489,4144.102564102565,4205.128205128207,4123.589743589745,4137.435897435899,627.0,2047.0,2048.0,0.0,0.0,4.0,4.0,4.0,4.0,0.0,4.0,4.0,4.0,4.0,0.0,0.0,0.0,0.0,0.0,4.0,4.0
73.0,0.0,4144.102564102565,4134.3589743589755,4164.102564102565,4106.666666666668,4184.102564102565,4130.256410256412,4157.435897435899,4160.000000000002,4056.4102564102577,4187.692307692309,4175.897435897437,4215.897435897437,4153.333333333335,4149.23076923077,0.0,2047.0,2048.0,0.0,0.0,4.0,4.0,4.0,4.0,0.0,4.0,4.0,4.0,4.0,0.0,0.0,0.0,0.0,0.0,4.0,4.0
74.0,0.0,4153.846153846155,4136.410256410258,4171.282051282053,4107.179487179489,4186.666666666668,4129.23076923077,4159.487179487181,4172.307692307694,4050.256410256412,4185.128205128207,4188.71794871795,4217.94871794872,4171.794871794873,4150.769230769232,853.0,2047.0,2048.0,0.0,0.0,4.0,4.0,4.0,4.0,0.0,4.0,4.0,4.0,4.0,0.0,0.0,0.0,4.0,0.0,4.0,4.0
75.0,0.0,4142.564102564104,4136.923076923078,4161.0256410256425,4104.102564102565,4185.128205128207,4140.000000000002,4153.846153846155,4152.307692307694,4034.358974358976,4183.589743589745,4174.871794871797,4205.641025641027,4163.076923076925,4143.076923076925,837.0,2047.0,2048.0,0.0,0.0,4.0,4.0,4.0,4.0,0.0,4.0,4.0,4.0,4.0,0.0,0.0,0.0,4.0,4.0,4.0,4.0
76.0,0.0,4137.435897435899,4140.000000000002,4164.102564102565,4109.743589743592,4190.769230769232,4156.923076923078,4168.20512820513,4168.71794871795,4030.256410256412,4185.128205128207,4155.384615384617,4215.384615384617,4134.3589743589755,4126.666666666668,848.0,2047.0,2048.0,0.0,0.0,4.0,4.0,4.0,4.0,0.0,4.0,4.0,4.0,4.0,0.0,4.0,0.0,4.0,4.0,4.0,4.0
77.0,0.0,4138.97435897436,4130.256410256412,4166.666666666668,4111.282051282053,4188.20512820513,4162.051282051283,4185.641025641027,4169.23076923077,4020.512820512822,4185.641025641027,4152.8205128205145,4206.153846153848,4121.538461538463,4118.46153846154,64.0,2047.0,2048.0,0.0,0.0,4.0,4.0,4.0,4.0,0.0,4.0,4.0,4.0,4.0,0.0,4.0,1.0,4.0,4.0,4.0,4.0
78.0,0.0,4128.20512820513,4117.94871794872,4162.564102564104,4097.435897435899,4189.23076923077,4163.589743589745,4180.512820512822,4163.076923076925,4022.0512820512836,4185.641025641027,4152.307692307694,4211.282051282053,4123.589743589745,4120.000000000002,853.0,2047.0,2048.0,0.0,0.0,4.0,4.0,4.0,4.0,0.0,4.0,4.0,4.0,4.0,0.0,4.0,1.0,4.0,4.0,4.0,4.0
79.0,0.0,4112.8205128205145,4133.333333333335,4145.641025641027,4090.7692307692323,4192.307692307694,4169.743589743592,4165.641025641027,4173.333333333335,4034.8717948717963,4185.128205128207,4140.512820512822,4215.897435897437,4116.923076923078,4113.846153846155,837.0,2047.0,2048.0,0.0,0.0,4.0,4.0,4.0,4.0,0.0,4.0,4.0,4.0,4.0,0.0,4.0,1.0,4.0,4.0,4.0,4.0
80.0,0.0,4137.435897435899,4153.846153846155,4163.589743589745,4101.0256410256425,4200.512820512822,4169.743589743592,4167.692307692309,4167.179487179489,4034.8717948717963,4185.128205128207,4147.179487179489,4206.153846153848,4121.0256410256425,4125.128205128207,848.0,2047.0,2048.0,0.0,0.0,4.0,4.0,4.0,4.0,0.0,4.0,4.0,4.0,4.0,0.0,4.0,1.0,4.0,4.0,4.0,4.0
81.0,0.0,4183.076923076925,4143.589743589745,4225.128205128207,4114.871794871797,4210.769230769232,4169.743589743592,4181.0256410256425,4158.97435897436,4034.358974358976,4186.153846153848,4174.871794871797,4217.94871794872,4141.538461538463,4161.0256410256425,64.0,2047.0,2048.0,0.0,0.0,4.0,4.0,4.0,4.0,0.0,4.0,4.0,4.0,4.0,0.0,4.0,1.0,4.0,4.0,4.0,4.0
82.0,0.0,4168.20512820513,4133.846153846155,4199.487179487181,4123.589743589745,4182.564102564104,4164.102564102565,4167.692307692309,4157.94871794872,4035.8974358974374,4186.153846153848,4173.846153846155,4208.71794871795,4141.538461538463,4167.179487179489,853.0,2047.0,2048.0,0.0,0.0,4.0,4.0,4.0,4.0,0.0,4.0,4.0,4.0,4.0,0.0,4.0,1.0,4.0,4.0,4.0,4.0
83.0,0.0,4130.769230769232,4161.538461538463,4137.435897435899,4129.23076923077,4161.538461538463,4160.512820512822,4145.128205128207,4162.564102564104,4034.8717948717963,4185.128205128207,4154.871794871797,4209.743589743592,4128.20512820513,4150.769230769232,837.0,2047.0,2048.0,0.0,0.0,4.0,4.0,4.0,4.0,0.0,4.0,4.0,4.0,4.0,0.0,4.0,1.0,4.0,4.0,4.0,4.0
84.0,0.0,4147.692307692309,4195.384615384617,4157.94871794872,4137.435897435899,4178.97435897436,4186.666666666668,4161.0256410256425,4180.000000000002,4042.0512820512836,4184.615384615386,4172.8205128205145,4216.923076923078,4143.589743589745,4169.23076923077,848.0,2047.0,2048.0,0.0,0.0,4.0,4.0,4.0,4.0,0.0,4.0,4.0,4.0,4.0,0.0,4.0,1.0,4.0,4.0,4.0,4.0
85.0,0.0,4177.435897435899,4199.487179487181,4193.333333333335,4150.256410256412,4190.769230769232,4195.384615384617,4183.076923076925,4188.71794871795,4045.1282051282064,4186.666666666668,4192.307692307694,4211.282051282053,4163.076923076925,4200.512820512822,64.0,2047.0,2048.0,0.0,0.0,4.0,4.0,4.0,4.0,0.0,4.0,4.0,4.0,4.0,0.0,4.0,1.0,4.0,4.0,4.0,4.0
86.0,0.0,4168.20512820513,4185.128205128207,4187.179487179489,4145.128205128207,4189.23076923077,4200.512820512822,4181.538461538463,4177.94871794872,4040.0000000000014,4186.666666666668,4176.410256410258,4221.0256410256425,4141.0256410256425,4191.794871794873,853.0,2047.0,2048.0,0.0,0.0,4.0,4.0,4.0,4.0,0.0,4.0,4.0,4.0,4.0,0.0,4.0,1.0,4.0,4.0,4.0,4.0
87.0,0.0,4153.333333333335,4184.102564102565,4170.769230769232,4133.333333333335,4184.102564102565,4296.923076923078,4189.23076923077,4182.564102564104,4050.7692307692323,4185.641025641027,4172.307692307694,4209.743589743592,4126.153846153848,4180.000000000002,837.0,2047.0,2048.0,0.0,0.0,4.0,4.0,4.0,4.0,0.0,4.0,4.0,4.0,4.0,0.0,4.0,1.0,4.0,4.0,4.0,4.0
88.0,0.0,4169.743589743592,4204.615384615386,4182.051282051283,4149.743589743592,4186.666666666668,4412.8205128205145,4196.410256410258,4189.743589743592,4053.846153846155,4185.641025641027,4189.743589743592,4215.384615384617,4145.128205128207,4197.94871794872,848.0,2047.0,2048.0,0.0,0.0,4.0,4.0,4.0,4.0,0.0,4.0,4.0,4.0,4.0,0.0,4.0,1.0,4.0,4.0,4.0,4.0
89.0,0.0,4189.23076923077,4219.487179487181,4192.307692307694,4167.179487179489,4188.71794871795,4418.46153846154,4178.46153846154,4174.871794871797,4037.435897435899,4185.641025641027,4190.256410256412,4224.102564102565,4158.46153846154,4211.282051282053,64.0,2047.0,2048.0,0.0,0.0,4.0,4.0,4.0,4.0,0.0,4.0,4.0,4.0,4.0,0.0,4.0,1.0,4.0,4.0,4.0,4.0
90.0,0.0,4182.564102564104,4205.128205128207,4180.512820512822,4151.794871794873,4183.589743589745,4388.20512820513,4178.97435897436,4166.153846153848,4042.564102564104,4184.102564102565,4181.0256410256425,4207.692307692309,4153.846153846155,4208.20512820513,853.0,2047.0,2048.0,0.0,0.0,4.0,4.0,4.0,4.0,0.0,4.0,4.0,4.0,4.0,0.0,4.0,1.0,4.0,4.0,4.0,4.0
91.0,0.0,4173.333333333335,4194.3589743589755,4177.94871794872,4143.076923076925,4187.179487179489,4404.615384615386,4191.282051282053,4168.20512820513,4053.846153846155,4185.128205128207,4176.410256410258,4216.923076923078,4150.256410256412,4204.615384615386,837.0,2047.0,2048.0,0.0,0.0,4.0,4.0,4.0,4.0,0.0,4.0,4.0,4.0,4.0,0.0,4.0,1.0,4.0,4.0,4.0,4.0
92.0,0.0,4173.333333333335,4199.487179487181,4172.8205128205145,4151.282051282053,4183.589743589745,4402.051282051283,4176.923076923078,4167.179487179489,4047.692307692309,4185.641025641027,4173.333333333335,4214.871794871797,4153.333333333335,4204.102564102565,848.0,2047.0,2048.0,0.0,0.0,4.0,4.0,4.0,4.0,0.0,4.0,4.0,4.0,4.0,0.0,4.0,1.0,4.0,4.0,4.0,4.0
93.0,0.0,4173.333333333335,4196.923076923078,4170.256410256412,4144.615384615386,4175.384615384617,4369.743589743592,4159.487179487181,4170.769230769232,4051.7948717948734,4184.615384615386,4174.3589743589755,4213.846153846155,4153.333333333335,4204.102564102565,64.0,2047.0,2048.0,0.0,0.0,4.0,4.0,4.0,4.0,0.0,4.0,4.0,4.0,4.0,0.0,4.0,1.0,4.0,4.0,4.0,4.0
94.0,0.0,4174.3589743589755,4190.256410256412,4176.410256410258,4137.435897435899,4178.46153846154,4369.743589743592,4164.102564102565,4168.20512820513,4060.512820512822,4186.153846153848,4180.000000000002,4221.0256410256425,4151.794871794873,4201.538461538463,853.0,2047.0,2048.0,0.0,0.0,4.0,4.0,4.0,4.0,0.0,4.0,4.0,4.0,4.0,0.0,4.0,1.0,4.0,4.0,4.0,4.0
95.0,0.0,4178.97435897436,4198.97435897436,4175.897435897437,4148.20512820513,4184.102564102565,4400.512820512822,4175.897435897437,4162.051282051283,4054.8717948717963,4187.179487179489,4183.589743589745,4208.71794871795,4155.384615384617,4200.000000000002,837.0,2047.0,2048.0,0.0,0.0,4.0,4.0,4.0,4.0,0.0,4.0,4.0,4.0,4.0,0.0,4.0,1.0,4.0,4.0,4.0,4.0
96.0,0.0,4181.538461538463,4208.20512820513,4181.538461538463,4151.794871794873,4189.23076923077,4422.051282051283,4183.589743589745,4171.282051282053,4046.1538461538476,4186.153846153848,4183.076923076925,4217.94871794872,4155.897435897437,4194.871794871797,848.0,2047.0,2048.0,0.0,0.0,4.0,4.0,4.0,4.0,0.0,4.0,4.0,4.0,4.0,0.0,4.0,1.0,4.0,4.0,4.0,4.0
97.0,0.0,4170.769230769232,4194.871794871797,4171.794871794873,4138.97435897436,4182.051282051283,4406.153846153848,4187.179487179489,4183.589743589745,4047.692307692309,4184.615384615386,4181.538461538463,4214.3589743589755,4151.794871794873,4180.512820512822,64.0,2047.0,2048.0,0.0,0.0,4.0,4.0,4.0,4.0,0.0,4.0,4.0,4.0,4.0,0.0,4.0,1.0,4.0,4.0,4.0,4.0
98.0,0.0,4169.743589743592,4186.153846153848,4162.051282051283,4137.435897435899,4181.0256410256425,4366.666666666668,4185.641025641027,4180.512820512822,4055.8974358974374,4184.615384615386,4184.102564102565,4209.743589743592,4157.94871794872,4185.128205128207,853.0,2047.0,2048.0,0.0,0.0,4.0,4.0,4.0,4.0,0.0,4.0,4.0,4.0,4.0,0.0,4.0,1.0,4.0,4.0,4.0,4.0
99.0,0.0,4166.666666666668,4186.666666666668,4167.692307692309,4140.000000000002,4190.769230769232,4342.564102564104,4176.923076923078,4174.3589743589755,4057.435897435899,4187.692307692309,4170.769230769232,4217.435897435899,4149.743589743592,4186.666666666668,837.0,2047.0,2048.0,0.0,0.0,4.0,4.0,4.0,4.0,0.0,4.0,4.0,4.0,4.0,0.0,4.0,1.0,4.0,4.0,4.0,4.0
100.0,0.0,4149.743589743592,4177.94871794872,4157.435897435899,4129.743589743592,4186.153846153848,4349.743589743592,4168.20512820513,4162.564102564104,4047.1794871794887,4185.641025641027,4155.897435897437,4204.615384615386,4128.71794871795,4164.615384615386,848.0,2047.0,2048.0,0.0,0.0,4.0,4.0,4.0,4.0,0.0,4.0,4.0,4.0,4.0,0.0,4.0,1.0,4.0,4.0,4.0,4.0
101.0,0.0,4160.512820512822,4183.076923076925,4167.179487179489,4135.897435897437,4185.641025641027,4362.564102564104,4172.307692307694,4164.102564102565,4052.8205128205145,4185.128205128207,4173.846153846155,4214.871794871797,4145.128205128207,4170.256410256412,64.0,2047.0,2048.0,0.0,0.0,4.0,4.0,4.0,4.0,0.0,4.0,4.0,4.0,4.0,0.0,4.0,1.0,4.0,4.0,4.0,4.0
102.0,0.0,4182.051282051283,4202.564102564104,4182.564102564104,4156.923076923078,4184.615384615386,4367.179487179488,4185.641025641027,4189.743589743592,4074.358974358976,4191.282051282053,4194.3589743589755,4215.897435897437,4177.435897435899,4197.435897435899,853.0,2047.0,2048.0,0.0,0.0,4.0,4.0,4.0,4.0,0.0,4.0,4.0,4.0,4.0,0.0,4.0,1.0,4.0,4.0,4.0,4.0
103.0,0.0,4188.71794871795,4216.923076923078,4182.051282051283,4167.179487179489,4183.589743589745,4372.307692307694,4193.333333333335,4196.410256410258,4078.9743589743603,4189.743589743592,4194.3589743589755,4210.769230769232,4182.564102564104,4202.051282051283,837.0,2047.0,2048.0,0.0,0.0,4.0,4.0,4.0,4.0,0.0,4.0,4.0,4.0,4.0,0.0,4.0,1.0,4.0,4.0,4.0,4.0
104.0,0.0,4192.8205128205145,4222.051282051283,4187.692307692309,4173.333333333335,4188.71794871795,4374.871794871797,4195.384615384617,4192.307692307694,4075.384615384617,4184.102564102565,4199.487179487181,4222.564102564104,4178.46153846154,4202.051282051283,848.0,2047.0,2048.0,0.0,0.0,4.0,4.0,4.0,4.0,0.0,4.0,4.0,4.0,4.0,0.0,4.0,1.0,4.0,4.0,4.0,4.0
105.0,0.0,4188.71794871795,4212.8205128205145,4182.051282051283,4177.435897435899,4185.128205128207,4373.333333333335,4194.871794871797,4194.871794871797,4076.4102564102577,4186.666666666668,4207.179487179489,4210.769230769232,4179.487179487181,4200.000000000002,64.0,2047.0,2048.0,0.0,0.0,4.0,4.0,4.0,4.0,0.0,4.0,4.0,4.0,4.0,0.0,4.0,1.0,4.0,4.0,4.0,4.0
106.0,0.0,4181.538461538463,4207.692307692309,4177.94871794872,4180.512820512822,4185.128205128207,4377.94871794872,4188.71794871795,4190.256410256412,4075.384615384617,4187.692307692309,4193.333333333335,4214.3589743589755,4170.769230769232,4189.23076923077,853.0,2047.0,2048.0,0.0,0.0,4.0,4.0,4.0,4.0,0.0,4.0,4.0,4.0,4.0,0.0,4.0,1.0,4.0,4.0,4.0,4.0
107.0,0.0,4194.871794871797,4222.051282051283,4185.641025641027,4191.794871794873,4186.666666666668,4380.512820512822,4184.102564102565,4190.256410256412,4076.9230769230785,4184.102564102565,4191.282051282053,4217.435897435899,4173.846153846155,4198.97435897436,837.0,2047.0,2048.0,0.0,0.0,4.0,4.0,4.0,4.0,0.0,4.0,4.0,4.0,4.0,0.0,4.0,1.0,4.0,4.0,4.0,4.0
108.0,0.0,4208.20512820513,4227.179487179489,4190.769230769232,4203.589743589745,4185.128205128207,4367.692307692309,4190.769230769232,4201.538461538463,4079.487179487181,4184.615384615386,4205.641025641027,4211.794871794873,4187.179487179489,4212.307692307694,848.0,2047.0,2048.0,0.0,0.0,4.0,4.0,4.0,4.0,0.0,4.0,4.0,4.0,4.0,0.0,4.0,1.0,4.0,4.0,4.0,4.0
109.0,0.0,4198.97435897436,4214.871794871797,4195.384615384617,4208.71794871795,4193.333333333335,4352.8205128205145,4195.384615384617,4196.410256410258,4073.333333333335,4185.641025641027,4204.615384615386,4217.94871794872,4184.102564102565,4204.615384615386,64.0,2047.0,2048.0,0.0,0.0,4.0,4.0,4.0,4.0,0.0,4.0,4.0,4.0,4.0,0.0,4.0,1.0,4.0,4.0,4.0,4.0
110.0,0.0,4189.23076923077,4206.666666666668,4192.8205128205145,4209.743589743592,4194.3589743589755,4333.846153846155,4189.743589743592,4178.97435897436,4069.743589743591,4185.128205128207,4201.538461538463,4207.692307692309,4184.102564102565,4203.589743589745,853.0,2047.0,2048.0,0.0,0.0,4.0,4.0,4.0,4.0,0.0,4.0,4.0,4.0,4.0,0.0,4.0,1.0,4.0,4.0,4.0,4.0
111.0,0.0,4197.435897435899,4205.641025641027,4192.8205128205145,4209.743589743592,4191.282051282053,4290.769230769232,4191.282051282053,4187.179487179489,4077.9487179487196,4186.153846153848,4205.128205128207,4217.435897435899,4185.641025641027,4210.256410256412,837.0,2047.0,2048.0,0.0,0.0,4.0,4.0,4.0,4.0,0.0,4.0,4.0,4.0,4.0,0.0,4.0,1.0,4.0,4.0,4.0,4.0
112.0,0.0,4197.435897435899,4205.641025641027,4185.128205128207,4209.743589743592,4186.153846153848,4247.179487179489,4201.538461538463,4197.435897435899,4081.5384615384633,4186.666666666668,4203.076923076925,4222.051282051283,4176.410256410258,4208.20512820513,848.0,2047.0,2048.0,0.0,0.0,4.0,4.0,4.0,4.0,0.0,4.0,4.0,4.0,4.0,0.0,4.0,1.0,4.0,4.0,4.0,4.0
113.0,0.0,4192.307692307694,4208.71794871795,4182.564102564104,4217.94871794872,4184.615384615386,4261.538461538463,4204.102564102565,4198.97435897436,4084.102564102566,4187.692307692309,4200.000000000002,4213.846153846155,4171.282051282053,4212.307692307694,64.0,2047.0,2048.0,0.0,0.0,4.0,4.0,4.0,4.0,0.0,4.0,4.0,4.0,4.0,0.0,4.0,1.0,4.0,4.0,4.0,4.0
114.0,0.0,4201.0256410256425,4208.20512820513,4204.615384615386,4221.0256410256425,4190.769230769232,4319.487179487181,4200.512820512822,4207.179487179489,4099.487179487181,4186.666666666668,4211.282051282053,4223.589743589745,4179.487179487181,4223.589743589745,853.0,2047.0,2048.0,0.0,0.0,4.0,4.0,4.0,4.0,0.0,4.0,4.0,4.0,4.0,0.0,4.0,1.0,4.0,4.0,4.0,4.0
115.0,0.0,4203.589743589745,4208.20512820513,4201.0256410256425,4212.8205128205145,4182.051282051283,4352.307692307694,4204.102564102565,4211.794871794873,4110.769230769232,4183.589743589745,4222.051282051283,4213.333333333335,4189.743589743592,4224.102564102565,837.0,2047.0,2048.0,0.0,0.0,4.0,4.0,4.0,4.0,0.0,4.0,4.0,4.0,4.0,0.0,4.0,1.0,4.0,4.0,4.0,4.0
116.0,0.0,4203.076923076925,4228.20512820513,4195.897435897437,4213.333333333335,4182.051282051283,4361.0256410256425,4210.256410256412,4214.871794871797,4101.538461538463,4184.615384615386,4219.487179487181,4218.97435897436,4189.743589743592,4223.076923076925,848.0,2047.0,2048.0,0.0,0.0,4.0,4.0,4.0,4.0,0.0,4.0,4.0,4.0,4.0,0.0,4.0,1.0,4.0,4.0,4.0,4.0
117.0,0.0,4206.153846153848,4238.46153846154,4205.128205128207,4223.076923076925,4188.20512820513,4370.769230769232,4208.71794871795,4209.743589743592,4084.102564102566,4186.153846153848,4211.794871794873,4223.589743589745,4182.051282051283,4219.487179487181,64.0,2047.0,2048.0,0.0,0.0,4.0,4.0,4.0,4.0,0.0,4.0,4.0,4.0,4.0,0.0,4.0,1.0,4.0,4.0,4.0,4.0
118.0,0.0,4208.71794871795,4226.153846153848,4202.564102564104,4226.153846153848,4183.589743589745,4371.282051282053,4214.3589743589755,4204.102564102565,4087.1794871794887,4185.641025641027,4215.384615384617,4210.769230769232,4187.179487179489,4218.46153846154,853.0,2047.0,2048.0,0.0,0.0,4.0,4.0,4.0,4.0,0.0,4.0,4.0,4.0,4.0,0.0,4.0,1.0,4.0,4.0,4.0,4.0
119.0,0.0,4215.384615384617,4222.564102564104,4208.20512820513,4210.256410256412,4185.128205128207,4358.97435897436,4214.871794871797,4198.46153846154,4093.846153846155,4184.615384615386,4219.487179487181,4222.051282051283,4199.487179487181,4223.589743589745,837.0,2047.0,2048.0,0.0,0.0,4.0,4.0,4.0,4.0,0.0,4.0,4.0,4.0,4.0,0.0,4.0,1.0,4.0,4.0,4.0,4.0
120.0,0.0,4215.897435897437,4226.666666666668,4209.23076923077,4191.282051282053,4183.589743589745,4345.128205128207,4193.333333333335,4178.46153846154,4083.0769230769247,4184.615384615386,4205.641025641027,4213.333333333335,4192.307692307694,4216.410256410258,848.0,2047.0,2048.0,0.0,0.0,4.0,4.0,4.0,4.0,0.0,4.0,4.0,4.0,4.0,0.0,4.0,1.0,4.0,4.0,4.0,4.0
121.0,0.0,4210.256410256412,4225.128205128207,4197.435897435899,4205.128205128207,4184.615384615386,4338.46153846154,4181.538461538463,4177.94871794872,4087.1794871794887,4186.153846153848,4201.538461538463,4212.8205128205145,4183.076923076925,4207.692307692309,64.0,2047.0,2048.0,0.0,0.0,4.0,4.0,4.0,4.0,0.0,4.0,4.0,4.0,4.0,0.0,4.0,1.0,4.0,4.0,4.0,4.0
122.0,0.0,4205.128205128207,4221.538461538463,4189.743589743592,4212.307692307694,4185.641025641027,4346.666666666668,4200.000000000002,4205.128205128207,4111.794871794873,4186.666666666668,4220.000000000002,4217.94871794872,4193.333333333335,4211.282051282053,853.0,2047.0,2048.0,0.0,0.0,4.0,4.0,4.0,4.0,0.0,4.0,4.0,4.0,4.0,0.0,4.0,1.0,4.0,4.0,4.0,4.0
123.0,0.0,4215.384615384617,4220.512820512822,4213.846153846155,4174.871794871797,4182.051282051283,4363.076923076925,4205.641025641027,4203.076923076925,4109.743589743592,4185.128205128207,4225.128205128207,4210.256410256412,4198.46153846154,4220.512820512822,837.0,2047.0,2048.0,0.0,0.0,4.0,4.0,4.0,4.0,0.0,4.0,4.0,4.0,4.0,0.0,4.0,1.0,4.0,4.0,4.0,4.0
124.0,0.0,4225.128205128207,4221.538461538463,4231.282051282053,4167.179487179489,4189.743589743592,4382.564102564104,4186.153846153848,4172.307692307694,4085.641025641027,4185.641025641027,4219.487179487181,4223.076923076925,4193.846153846155,4219.487179487181,848.0,2047.0,2048.0,0.0,0.0,4.0,4.0,4.0,4.0,0.0,4.0,4.0,4.0,4.0,0.0,4.0,1.0,4.0,4.0,4.0,4.0
125.0,0.0,4199.487179487181,4221.0256410256425,4176.923076923078,4193.333333333335,4188.71794871795,4394.871794871797,4184.102564102565,4183.076923076925,4090.256410256412,4187.179487179489,4220.000000000002,4214.3589743589755,4194.3589743589755,4202.051282051283,64.0,2047.0,2048.0,0.0,0.0,4.0,4.0,4.0,4.0,0.0,4.0,4.0,4.0,4.0,0.0,4.0,1.0,4.0,4.0,4.0,4.0
126.0,0.0,4172.307692307694,4215.897435897437,4143.589743589745,4180.000000000002,4183.076923076925,4375.897435897437,4176.410256410258,4197.94871794872,4093.846153846155,4186.153846153848,4209.743589743592,4209.743589743592,4186.153846153848,4182.564102564104,853.0,2047.0,2048.0,0.0,0.0,4.0,4.0,4.0,4.0,0.0,4.0,4.0,4.0,4.0,0.0,4.0,1.0,4.0,4.0,4.0,4.0
127.0,0.0,4173.333333333335,4203.076923076925,4167.692307692309,4152.307692307694,4183.076923076925,4344.102564102565,4152.8205128205145,4180.512820512822,4082.564102564104,4186.153846153848,4197.435897435899,4214.3589743589755,4170.769230769232,4175.384615384617,837.0,2047.0,2048.0,0.0,0.0,4.0,4.0,4.0,4.0,0.0,4.0,4.0,4.0,4.0,0.0,4.0,1.0,4.0,4.0,4.0,4.0
128.0,0.0,4166.153846153848,4182.051282051283,4158.46153846154,4144.615384615386,4182.051282051283,4347.692307692309,4154.3589743589755,4170.256410256412,4093.333333333335,4183.076923076925,4193.846153846155,4205.128205128207,4162.564102564104,4169.743589743592,848.0,2047.0,2048.0,0.0,0.0,4.0,4.0,4.0,4.0,0.0,4.0,4.0,4.0,4.0,0.0,4.0,1.0,4.0,4.0,4.0,4.0
0.0,0.0,4166.666666666668,4178.97435897436,4154.871794871797,4137.435897435899,4187.692307692309,4370.769230769232,4168.71794871795,4166.666666666668,4104.615384615386,4184.615384615386,4194.871794871797,4216.410256410258,4174.871794871797,4174.3589743589755,654.0,2047.0,2048.0,0.0,0.0,4.0,4.0,4.0,4.0,0.0,4.0,4.0,4.0,4.0,0.0,4.0,1.0,4.0,4.0,4.0,4.0
1.0,0.0,4183.589743589745,4191.794871794873,4173.846153846155,4140.000000000002,4183.589743589745,4376.410256410258,4171.794871794873,4181.538461538463,4096.923076923078,4192.307692307694,4204.615384615386,4211.282051282053,4189.743589743592,4192.8205128205145,822.0,2047.0,2048.0,0.0,0.0,4.0,4.0,4.0,4.0,0.0,4.0,4.0,4.0,4.0,0.0,4.0,1.0,4.0,4.0,4.0,4.0
2.0,0.0,4174.871794871797,4185.128205128207,4168.20512820513,4145.641025641027,4181.538461538463,4366.666666666668,4170.769230769232,4186.153846153848,4089.230769230771,4191.282051282053,4193.846153846155,4209.743589743592,4169.23076923077,4184.102564102565,799.0,2047.0,2048.0,0.0,0.0,4.0,4.0,4.0,4.0,0.0,4.0,4.0,4.0,4.0,0.0,4.0,1.0,4.0,4.0,4.0,4.0
3.0,0.0,4164.615384615386,4172.307692307694,4159.487179487181,4132.8205128205145,4187.179487179489,4347.692307692309,4166.153846153848,4155.897435897437,4090.7692307692323,4184.615384615386,4181.538461538463,4215.897435897437,4164.615384615386,4171.282051282053,763.0,2047.0,2048.0,0.0,0.0,4.0,4.0,4.0,4.0,0.0,4.0,4.0,4.0,4.0,0.0,4.0,1.0,4.0,4.0,4.0,4.0
4.0,0.0,4166.666666666668,4176.410256410258,4153.846153846155,4128.71794871795,4185.641025641027,4330.769230769232,4156.923076923078,4136.410256410258,4083.0769230769247,4184.102564102565,4192.307692307694,4202.051282051283,4188.20512820513,4176.923076923078,0.0,2047.0,2048.0,0.0,0.0,4.0,4.0,4.0,4.0,0.0,4.0,4.0,4.0,4.0,0.0,4.0,1.0,4.0,4.0,4.0,4.0
5.0,0.0,4158.97435897436,4176.410256410258,4152.8205128205145,4136.923076923078,4189.23076923077,4346.153846153848,4167.692307692309,4142.564102564104,4071.7948717948734,4187.179487179489,4186.153846153848,4213.333333333335,4172.307692307694,4162.564102564104,770.0,2047.0,2048.0,0.0,0.0,4.0,4.0,4.0,4.0,0.0,4.0,4.0,4.0,4.0,0.0,4.0,1.0,4.0,4.0,4.0,4.0
6.0,0.0,4159.487179487181,4171.794871794873,4156.410256410258,4138.46153846154,4186.666666666668,4367.179487179488,4185.128205128207,4148.71794871795,4078.46153846154,4185.641025641027,4176.923076923078,4211.282051282053,4156.410256410258,4152.307692307694,805.0,2047.0,2048.0,0.0,0.0,4.0,4.0,4.0,4.0,0.0,4.0,4.0,4.0,4.0,0.0,4.0,1.0,4.0,4.0,4.0,4.0
7.0,0.0,4187.692307692309,4191.794871794873,4173.846153846155,4158.46153846154,4184.102564102565,4360.512820512822,4183.076923076925,4165.128205128207,4098.46153846154,4185.641025641027,4207.692307692309,4210.256410256412,4194.871794871797,4184.615384615386,789.0,2047.0,2048.0,0.0,0.0,4.0,4.0,4.0,4.0,0.0,4.0,4.0,4.0,4.0,0.0,4.0,1.0,4.0,4.0,4.0,4.0
8.0,0.0,4198.97435897436,4209.23076923077,4187.692307692309,4192.8205128205145,4190.256410256412,4366.153846153848,4185.128205128207,4190.256410256412,4110.769230769232,4186.666666666668,4228.20512820513,4221.0256410256425,4211.794871794873,4200.000000000002,624.0,2047.0,2048.0,0.0,0.0,4.0,4.0,4.0,4.0,0.0,4.0,4.0,4.0,4.0,0.0,4.0,1.0,4.0,4.0,4.0,4.0
9.0,0.0,4184.615384615386,4190.769230769232,4186.153846153848,4190.256410256412,4186.666666666668,4389.743589743592,4196.410256410258,4189.743589743592,4104.615384615386,4185.128205128207,4205.128205128207,4207.179487179489,4176.410256410258,4181.0256410256425,0.0,2047.0,2048.0,0.0,0.0,4.0,4.0,4.0,4.0,0.0,4.0,4.0,4.0,4.0,0.0,4.0,1.0,4.0,4.0,4.0,4.0
10.0,0.0,4189.23076923077,4179.487179487181,4204.102564102565,4163.589743589745,4186.153846153848,4390.256410256412,4194.3589743589755,4180.512820512822,4096.410256410258,4185.641025641027,4193.846153846155,4214.3589743589755,4168.71794871795,4186.153846153848,851.0,2047.0,2048.0,0.0,0.0,4.0,4.0,4.0,4.0,0.0,4.0,4.0,4.0,4.0,0.0,4.0,1.0,4.0,4.0,4.0,4.0
11.0,0.0,4182.564102564104,4191.282051282053,4184.615384615386,4162.564102564104,4185.128205128207,4380.000000000002,4186.153846153848,4179.487179487181,4093.846153846155,4186.153846153848,4196.923076923078,4215.384615384617,4178.97435897436,4189.743589743592,837.0,2047.0,2048.0,0.0,0.0,4.0,4.0,4.0,4.0,0.0,4.0,4.0,4.0,4.0,0.0,4.0,1.0,4.0,4.0,4.0,4.0
12.0,0.0,4164.615384615386,4203.589743589745,4146.666666666668,4186.666666666668,4184.102564102565,4381.538461538463,4188.71794871795,4181.0256410256425,4094.358974358976,4185.641025641027,4184.615384615386,4211.282051282053,4159.487179487181,4171.794871794873,848.0,2047.0,2048.0,0.0,0.0,4.0,4.0,4.0,4.0,0.0,4.0,4.0,4.0,4.0,0.0,4.0,1.0,4.0,4.0,4.0,4.0
13.0,0.0,4173.846153846155,4207.692307692309,4163.589743589745,4201.0256410256425,4188.20512820513,4378.97435897436,4192.8205128205145,4183.589743589745,4095.8974358974374,4186.666666666668,4180.000000000002,4218.97435897436,4151.794871794873,4173.333333333335,60.0,2047.0,2048.0,0.0,0.0,4.0,4.0,4.0,4.0,0.0,4.0,4.0,4.0,4.0,0.0,4.0,1.0,4.0,4.0,4.0,4.0
14.0,0.0,4181.0256410256425,4210.769230769232,4177.435897435899,4193.846153846155,4184.102564102565,4368.71794871795,4186.666666666668,4174.871794871797,4091.7948717948734,4186.153846153848,4188.71794871795,4207.179487179489,4168.71794871795,4184.615384615386,851.0,2047.0,2048.0,0.0,0.0,4.0,4.0,4.0,4.0,0.0,4.0,4.0,4.0,4.0,0.0,4.0,1.0,4.0,4.0,4.0,4.0
15.0,0.0,4187.179487179489,4223.076923076925,4181.0256410256425,4193.846153846155,4186.666666666668,4370.256410256412,4180.512820512822,4169.743589743592,4089.743589743591,4186.666666666668,4192.8205128205145,4216.923076923078,4171.794871794873,4186.153846153848,837.0,2047.0,2048.0,0.0,0.0,4.0,4.0,4.0,4.0,0.0,4.0,4.0,4.0,4.0,0.0,4.0,1.0,4.0,4.0,4.0,4.0
16.0,0.0,4205.641025641027,4233.333333333335,4195.897435897437,4211.282051282053,4186.666666666668,4390.769230769232,4193.333333333335,4183.589743589745,4101.0256410256425,4187.179487179489,4199.487179487181,4218.97435897436,4174.3589743589755,4199.487179487181,0.0,2047.0,2048.0,0.0,0.0,4.0,4.0,4.0,4.0,0.0,4.0,4.0,4.0,4.0,0.0,4.0,1.0,4.0,4.0,4.0,4.0
17.0,0.0,4216.410256410258,4238.46153846154,4203.076923076925,4217.94871794872,4183.589743589745,4411.794871794873,4208.20512820513,4195.897435897437,4111.282051282053,4185.128205128207,4212.8205128205145,4213.846153846155,4192.8205128205145,4217.94871794872,0.0,2047.0,2048.0,0.0,0.0,4.0,4.0,4.0,4.0,0.0,4.0,4.0,4.0,4.0,0.0,4.0,1.0,4.0,4.0,4.0,4.0
18.0,0.0,4208.20512820513,4237.94871794872,4198.97435897436,4205.641025641027,4187.179487179489,4418.46153846154,4201.0256410256425,4186.666666666668,4097.94871794872,4188.20512820513,4203.589743589745,4222.564102564104,4180.000000000002,4207.692307692309,0.0,2047.0,2048.0,0.0,0.0,4.0,4.0,4.0,4.0,0.0,4.0,4.0,4.0,4.0,0.0,4.0,1.0,4.0,4.0,4.0,4.0
19.0,0.0,4198.97435897436,4233.333333333335,4182.564102564104,4200.000000000002,4183.076923076925,4418.46153846154,4195.897435897437,4183.076923076925,4091.2820512820526,4192.307692307694,4183.076923076925,4208.71794871795,4155.384615384617,4193.846153846155,0.0,2047.0,2048.0,0.0,0.0,4.0,4.0,4.0,4.0,0.0,4.0,4.0,4.0,4.0,0.0,4.0,1.0,4.0,4.0,4.0,4.0
20.0,0.0,4206.153846153848,4237.94871794872,4187.692307692309,4207.179487179489,4184.102564102565,4417.94871794872,4207.179487179489,4189.743589743592,4100.512820512822,4188.20512820513,4186.153846153848,4215.384615384617,4169.743589743592,4205.641025641027,0.0,2047.0,2048.0,0.0,0.0,4.0,4.0,4.0,4.0,0.0,4.0,4.0,4.0,4.0,0.0,4.0,1.0,4.0,4.0,4.0,4.0
21.0,0.0,4199.487179487181,4232.8205128205145,4191.794871794873,4202.051282051283,4186.666666666668,4412.8205128205145,4196.923076923078,4176.923076923078,4093.846153846155,4184.102564102565,4183.076923076925,4216.410256410258,4174.3589743589755,4204.615384615386,0.0,2047.0,2048.0,0.0,0.0,4.0,4.0,4.0,4.0,0.0,4.0,4.0,4.0,4.0,0.0,4.0,1.0,4.0,4.0,4.0,4.0
22.0,0.0,4186.153846153848,4218.46153846154,4177.94871794872,4195.384615384617,4184.102564102565,4411.282051282053,4187.179487179489,4166.153846153848,4095.8974358974374,4186.666666666668,4173.333333333335,4207.179487179489,4160.512820512822,4191.282051282053,0.0,2047.0,2048.0,0.0,0.0,4.0,4.0,4.0,4.0,0.0,4.0,4.0,4.0,4.0,0.0,4.0,1.0,4.0,4.0,4.0,4.0
23.0,0.0,4191.794871794873,4217.94871794872,4185.128205128207,4205.641025641027,4186.666666666668,4417.94871794872,4206.153846153848,4189.743589743592,4118.97435897436,4187.179487179489,4184.615384615386,4220.512820512822,4168.20512820513,4204.615384615386,0.0,2047.0,2048.0,0.0,0.0,4.0,4.0,4.0,4.0,0.0,4.0,4.0,4.0,4.0,0.0,4.0,1.0,4.0,4.0,4.0,4.0
24.0,0.0,4187.179487179489,4223.076923076925,4180.512820512822,4207.179487179489,4182.564102564104,4408.20512820513,4205.128205128207,4198.46153846154,4112.307692307694,4184.102564102565,4184.102564102565,4210.256410256412,4173.333333333335,4210.256410256412,0.0,2047.0,2048.0,0.0,0.0,4.0,4.0,4.0,4.0,0.0,4.0,4.0,4.0,4.0,0.0,4.0,1.0,4.0,4.0,4.0,4.0
25.0,0.0,4176.923076923078,4218.46153846154,4175.384615384617,4199.487179487181,4183.076923076925,4392.307692307694,4183.589743589745,4165.641025641027,4089.230769230771,4185.641025641027,4171.794871794873,4211.794871794873,4163.589743589745,4198.97435897436,0.0,2047.0,2048.0,0.0,0.0,4.0,4.0,4.0,4.0,0.0,4.0,4.0,4.0,4.0,0.0,4.0,1.0,4.0,4.0,4.0,4.0
26.0,0.0,4184.102564102565,4221.0256410256425,4186.153846153848,4205.128205128207,4185.128205128207,4393.846153846155,4183.076923076925,4148.71794871795,4097.435897435899,4186.666666666668,4182.051282051283,4217.435897435899,4168.20512820513,4207.179487179489,0.0,2047.0,2048.0,0.0,0.0,4.0,4.0,4.0,4.0,0.0,4.0,4.0,4.0,4.0,0.0,4.0,1.0,4.0,4.0,4.0,4.0
27.0,0.0,4194.3589743589755,4242.564102564104,4191.282051282053,4215.384615384617,4183.076923076925,4405.641025641027,4195.384615384617,4171.282051282053,4110.256410256412,4185.641025641027,4190.256410256412,4211.794871794873,4174.3589743589755,4217.94871794872,0.0,2047.0,2048.0,0.0,0.0,4.0,4.0,4.0,4.0,0.0,4.0,4.0,4.0,4.0,0.0,4.0,1.0,4.0,4.0,4.0,4.0
28.0,0.0,4197.435897435899,4248.71794871795,4194.3589743589755,4217.435897435899,4187.692307692309,4418.97435897436,4200.512820512822,4188.71794871795,4106.666666666668,4185.641025641027,4185.641025641027,4221.538461538463,4165.641025641027,4211.794871794873,0.0,2047.0,2048.0,0.0,0.0,4.0,4.0,4.0,4.0,0.0,4.0,4.0,4.0,4.0,0.0,4.0,1.0,4.0,4.0,4.0,4.0
29.0,0.0,4194.3589743589755,4233.333333333335,4182.051282051283,4214.871794871797,4184.102564102565,4416.923076923078,4198.46153846154,4175.384615384617,4104.615384615386,4184.615384615386,4187.179487179489,4209.23076923077,4163.076923076925,4203.589743589745,0.0,2047.0,2048.0,0.0,0.0,4.0,4.0,4.0,4.0,0.0,4.0,4.0,4.0,4.0,0.0,4.0,1.0,4.0,4.0,4.0,4.0
30.0,0.0,4198.46153846154,4234.3589743589755,4182.051282051283,4215.384615384617,4183.076923076925,4392.8205128205145,4191.794871794873,4166.153846153848,4106.153846153848,4185.128205128207,4188.71794871795,4210.256410256412,4169.23076923077,4206.153846153848,0.0,2047.0,2048.0,0.0,0.0,4.0,4.0,4.0,4.0,0.0,4.0,4.0,4.0,4.0,0.0,4.0,1.0,4.0,4.0,4.0,4.0
31.0,0.0,4198.46153846154,4237.435897435899,4189.743589743592,4211.282051282053,4187.179487179489,4373.846153846155,4189.743589743592,4183.076923076925,4110.256410256412,4187.179487179489,4190.256410256412,4220.512820512822,4169.743589743592,4205.641025641027,0.0,2047.0,2048.0,0.0,0.0,4.0,4.0,4.0,4.0,0.0,4.0,4.0,4.0,4.0,0.0,4.0,1.0,4.0,4.0,4.0,4.0
32.0,0.0,4193.333333333335,4230.256410256412,4182.051282051283,4208.71794871795,4185.641025641027,4383.589743589745,4201.0256410256425,4191.282051282053,4111.282051282053,4186.666666666668,4194.871794871797,4210.769230769232,4166.666666666668,4201.0256410256425,0.0,2047.0,2048.0,0.0,0.0,4.0,4.0,4.0,4.0,0.0,4.0,4.0,4.0,4.0,0.0,4.0,1.0,4.0,4.0,4.0,4.0
33.0,0.0,4206.153846153848,4242.564102564104,4194.3589743589755,4217.435897435899,4189.23076923077,4392.307692307694,4207.179487179489,4181.0256410256425,4112.307692307694,4185.641025641027,4192.8205128205145,4217.94871794872,4172.8205128205145,4210.769230769232,0.0,2047.0,2048.0,0.0,0.0,4.0,4.0,4.0,4.0,0.0,4.0,4.0,4.0,4.0,0.0,4.0,1.0,4.0,4.0,4.0,4.0
34.0,0.0,4215.384615384617,4253.333333333335,4198.97435897436,4217.94871794872,4184.615384615386,4376.410256410258,4204.102564102565,4183.589743589745,4122.051282051283,4187.692307692309,4194.871794871797,4213.333333333335,4184.615384615386,4222.564102564104,0.0,2047.0,2048.0,0.0,0.0,4.0,4.0,4.0,4.0,0.0,4.0,4.0,4.0,4.0,0.0,4.0,1.0,4.0,4.0,4.0,4.0
35.0,0.0,4209.743589743592,4245.128205128207,4192.307692307694,4211.282051282053,4183.076923076925,4364.102564102565,4199.487179487181,4185.128205128207,4124.615384615386,4187.692307692309,4200.000000000002,4215.897435897437,4186.666666666668,4220.512820512822,0.0,2047.0,2048.0,0.0,0.0,4.0,4.0,4.0,4.0,0.0,4.0,4.0,4.0,4.0,0.0,4.0,1.0,4.0,4.0,4.0,4.0
36.0,0.0,4211.794871794873,4248.20512820513,4194.3589743589755,4218.46153846154,4187.179487179489,4364.615384615386,4198.46153846154,4176.410256410258,4119.487179487181,4185.128205128207,4201.0256410256425,4222.051282051283,4190.769230769232,4221.0256410256425,0.0,2047.0,2048.0,0.0,0.0,4.0,4.0,4.0,4.0,0.0,4.0,4.0,4.0,4.0,0.0,4.0,1.0,4.0,4.0,4.0,4.0
37.0,0.0,4218.46153846154,4259.487179487181,4193.333333333335,4227.179487179489,4181.0256410256425,4372.307692307694,4202.564102564104,4185.128205128207,4124.102564102565,4185.128205128207,4204.615384615386,4211.282051282053,4201.0256410256425,4230.256410256412,0.0,2047.0,2048.0,0.0,0.0,4.0,4.0,4.0,4.0,0.0,4.0,4.0,4.0,4.0,0.0,4.0,1.0,4.0,4.0,4.0,4.0
38.0,0.0,4215.897435897437,4257.435897435899,4201.0256410256425,4227.692307692309,4184.615384615386,4380.512820512822,4203.589743589745,4191.282051282053,4124.102564102565,4187.179487179489,4200.000000000002,4221.0256410256425,4191.794871794873,4225.128205128207,0.0,2047.0,2048.0,0.0,0.0,4.0,4.0,4.0,4.0,0.0,4.0,4.0,4.0,4.0,0.0,4.0,1.0,4.0,4.0,4.0,4.0
39.0,0.0,4208.71794871795,4250.769230769232,4197.94871794872,4230.256410256412,4186.666666666668,4383.076923076925,4199.487179487181,4170.769230769232,4116.923076923078,4185.641025641027,4184.615384615386,4214.3589743589755,4173.333333333335,4208.20512820513,0.0,2047.0,2048.0,0.0,0.0,4.0,4.0,4.0,4.0,0.0,4.0,4.0,4.0,4.0,0.0,4.0,1.0,4.0,4.0,4.0,4.0
40.0,0.0,4213.846153846155,4252.8205128205145,4193.846153846155,4242.564102564104,4184.615384615386,4380.000000000002,4201.538461538463,4168.71794871795,4122.564102564104,4183.589743589745,4184.102564102565,4210.769230769232,4177.435897435899,4214.3589743589755,0.0,2047.0,2048.0,0.0,0.0,4.0,4.0,4.0,4.0,0.0,4.0,4.0,4.0,4.0,0.0,4.0,1.0,4.0,4.0,4.0,4.0
41.0,0.0,4218.46153846154,4253.333333333335,4206.666666666668,4251.794871794873,4196.410256410258,4367.692307692309,4208.71794871795,4183.589743589745,4121.538461538463,4184.615384615386,4192.307692307694,4220.512820512822,4190.769230769232,4229.743589743592,0.0,2047.0,2048.0,0.0,0.0,4.0,4.0,4.0,4.0,0.0,4.0,4.0,4.0,4.0,0.0,4.0,1.0,4.0,4.0,4.0,4.0
42.0,0.0,4214.871794871797,4251.794871794873,4209.743589743592,4244.102564102565,4203.076923076925,4344.102564102565,4210.256410256412,4172.8205128205145,4110.256410256412,4186.666666666668,4185.128205128207,4209.23076923077,4190.769230769232,4227.179487179489,0.0,2047.0,2048.0,0.0,0.0,4.0,4.0,4.0,4.0,0.0,4.0,4.0,4.0,4.0,0.0,4.0,1.0,4.0,4.0,4.0,4.0
43.0,0.0,4217.94871794872,4251.282051282053,4205.128205128207,4240.000000000002,4186.666666666668,4326.666666666668,4202.051282051283,4168.71794871795,4116.923076923078,4185.128205128207,4185.128205128207,4218.46153846154,4185.641025641027,4221.538461538463,0.0,2047.0,2048.0,0.0,0.0,4.0,4.0,4.0,4.0,0.0,4.0,4.0,4.0,4.0,0.0,4.0,1.0,4.0,4.0,4.0,4.0
44.0,0.0,4217.94871794872,4252.8205128205145,4189.23076923077,4242.564102564104,4162.564102564104,4323.589743589745,4195.384615384617,4189.743589743592,4130.769230769232,4183.076923076925,4202.564102564104,4217.94871794872,4189.23076923077,4226.153846153848,0.0,2047.0,2048.0,0.0,0.0,4.0,4.0,4.0,4.0,0.0,4.0,4.0,4.0,4.0,0.0,4.0,1.0,4.0,4.0,4.0,4.0
45.0,0.0,4215.384615384617,4263.589743589745,4185.641025641027,4238.97435897436,4173.333333333335,4332.307692307694,4203.589743589745,4193.333333333335,4124.615384615386,4186.666666666668,4199.487179487181,4214.871794871797,4190.769230769232,4226.153846153848,0.0,2047.0,2048.0,0.0,0.0,4.0,4.0,4.0,4.0,0.0,4.0,4.0,4.0,4.0,0.0,4.0,1.0,4.0,4.0,4.0,4.0
46.0,0.0,4215.384615384617,4266.666666666668,4203.589743589745,4232.8205128205145,4199.487179487181,4360.000000000002,4217.94871794872,4181.538461538463,4116.923076923078,4189.23076923077,4182.564102564104,4221.0256410256425,4180.000000000002,4215.384615384617,0.0,2047.0,2048.0,0.0,0.0,4.0,4.0,4.0,4.0,0.0,4.0,4.0,4.0,4.0,0.0,4.0,1.0,4.0,4.0,4.0,4.0
47.0,0.0,4209.743589743592,4258.46153846154,4200.512820512822,4230.769230769232,4194.871794871797,4384.615384615386,4219.487179487181,4190.769230769232,4130.256410256412,4187.179487179489,4184.615384615386,4208.20512820513,4171.282051282053,4209.743589743592,0.0,2047.0,2048.0,0.0,0.0,4.0,4.0,4.0,4.0,0.0,4.0,4.0,4.0,4.0,0.0,4.0,1.0,4.0,4.0,4.0,4.0
48.0,0.0,4213.333333333335,4261.0256410256425,4199.487179487181,4233.333333333335,4188.71794871795,4380.512820512822,4206.153846153848,4187.692307692309,4128.20512820513,4185.641025641027,4185.641025641027,4216.923076923078,4169.743589743592,4212.307692307694,0.0,2047.0,2048.0,0.0,0.0,4.0,4.0,4.0,4.0,0.0,4.0,4.0,4.0,4.0,0.0,4.0,1.0,4.0,4.0,4.0,4.0
49.0,0.0,4226.153846153848,4272.307692307694,4204.102564102565,4242.564102564104,4186.153846153848,4369.23076923077,4195.897435897437,4164.615384615386,4105.641025641027,4186.153846153848,4176.410256410258,4214.3589743589755,4170.256410256412,4213.846153846155,0.0,2047.0,2048.0,0.0,0.0,4.0,4.0,4.0,4.0,0.0,4.0,4.0,4.0,4.0,0.0,4.0,1.0,4.0,4.0,4.0,4.0
50.0,0.0,4230.769230769232,4275.897435897437,4205.641025641027,4249.23076923077,4184.102564102565,4373.846153846155,4197.435897435899,4169.743589743592,4110.769230769232,4185.641025641027,4178.97435897436,4208.20512820513,4175.384615384617,4216.410256410258,0.0,2047.0,2048.0,0.0,0.0,4.0,4.0,4.0,4.0,0.0,4.0,4.0,4.0,4.0,0.0,4.0,1.0,4.0,4.0,4.0,4.0
51.0,0.0,4224.615384615386,4268.20512820513,4211.794871794873,4238.97435897436,4188.71794871795,4380.000000000002,4204.615384615386,4188.71794871795,4136.410256410258,4186.153846153848,4188.20512820513,4221.538461538463,4180.512820512822,4219.487179487181,0.0,2047.0,2048.0,0.0,0.0,4.0,4.0,4.0,4.0,0.0,4.0,4.0,4.0,4.0,0.0,4.0,1.0,4.0,4.0,4.0,4.0
52.0,0.0,4212.8205128205145,4254.871794871797,4198.97435897436,4226.666666666668,4183.589743589745,4368.71794871795,4205.128205128207,4177.435897435899,4134.871794871797,4185.641025641027,4186.666666666668,4210.769230769232,4173.846153846155,4210.769230769232,0.0,2047.0,2048.0,0.0,0.0,4.0,4.0,4.0,4.0,0.0,4.0,4.0,4.0,4.0,0.0,4.0,1.0,4.0,4.0,4.0,4.0
53.0,0.0,4211.794871794873,4253.333333333335,4197.435897435899,4227.692307692309,4182.051282051283,4355.384615384617,4188.20512820513,4158.97435897436,4116.923076923078,4184.102564102565,4178.97435897436,4215.384615384617,4165.128205128207,4205.128205128207,0.0,2047.0,2048.0,0.0,0.0,4.0,4.0,4.0,4.0,0.0,4.0,4.0,4.0,4.0,0.0,4.0,1.0,4.0,4.0,4.0,4.0
54.0,0.0,4215.897435897437,4262.564102564104,4201.0256410256425,4230.256410256412,4183.589743589745,4364.102564102565,4179.487179487181,4174.3589743589755,4126.153846153848,4184.615384615386,4178.97435897436,4216.923076923078,4171.282051282053,4210.256410256412,0.0,2047.0,2048.0,0.0,0.0,4.0,4.0,4.0,4.0,0.0,4.0,4.0,4.0,4.0,0.0,4.0,1.0,4.0,4.0,4.0,4.0
55.0,0.0,4213.846153846155,4260.000000000002,4192.307692307694,4230.256410256412,4184.102564102565,4383.589743589745,4193.846153846155,4190.256410256412,4141.538461538463,4186.666666666668,4181.538461538463,4208.20512820513,4179.487179487181,4207.692307692309,0.0,2047.0,2048.0,0.0,0.0,4.0,4.0,4.0,4.0,0.0,4.0,4.0,4.0,4.0,0.0,4.0,1.0,4.0,4.0,4.0,4.0
56.0,0.0,4218.46153846154,4257.94871794872,4201.0256410256425,4232.8205128205145,4190.256410256412,4388.71794871795,4203.589743589745,4181.538461538463,4141.0256410256425,4186.153846153848,4187.179487179489,4219.487179487181,4179.487179487181,4207.179487179489,0.0,2047.0,2048.0,0.0,0.0,4.0,4.0,4.0,4.0,0.0,4.0,4.0,4.0,4.0,0.0,4.0,1.0,4.0,4.0,4.0,4.0
57.0,0.0,4222.051282051283,4264.102564102565,4202.564102564104,4236.923076923078,4186.153846153848,4381.538461538463,4199.487179487181,4173.846153846155,4138.97435897436,4184.615384615386,4187.179487179489,4213.846153846155,4176.923076923078,4212.8205128205145,0.0,2047.0,2048.0,0.0,0.0,4.0,4.0,4.0,4.0,0.0,4.0,4.0,4.0,4.0,0.0,4.0,1.0,4.0,4.0,4.0,4.0
58.0,0.0,4214.3589743589755,4261.0256410256425,4197.435897435899,4236.410256410258,4185.641025641027,4369.23076923077,4195.384615384617,4167.179487179489,4134.3589743589755,4184.615384615386,4171.282051282053,4214.871794871797,4159.487179487181,4200.512820512822,0.0,2047.0,2048.0,0.0,0.0,4.0,4.0,4.0,4.0,0.0,4.0,4.0,4.0,4.0,0.0,4.0,1.0,4.0,4.0,4.0,4.0
59.0,0.0,4208.20512820513,4253.333333333335,4195.384615384617,4232.307692307694,4188.20512820513,4366.153846153848,4196.923076923078,4162.051282051283,4131.794871794873,4185.641025641027,4170.769230769232,4214.3589743589755,4154.3589743589755,4189.23076923077,0.0,2047.0,2048.0,0.0,0.0,4.0,4.0,4.0,4.0,0.0,4.0,4.0,4.0,4.0,0.0,4.0,1.0,4.0,4.0,4.0,4.0
60.0,0.0,4213.846153846155,4254.871794871797,4192.8205128205145,4227.179487179489,4185.128205128207,4377.94871794872,4201.0256410256425,4176.410256410258,4145.128205128207,4185.641025641027,4190.769230769232,4209.23076923077,4182.564102564104,4202.051282051283,0.0,2047.0,2048.0,0.0,0.0,4.0,4.0,4.0,4.0,0.0,4.0,4.0,4.0,4.0,0.0,4.0,1.0,4.0,4.0,4.0,4.0
61.0,0.0,4216.923076923078,4254.3589743589755,4201.0256410256425,4226.153846153848,4189.23076923077,4381.0256410256425,4201.0256410256425,4181.538461538463,4151.794871794873,4185.641025641027,4199.487179487181,4220.512820512822,4203.076923076925,4210.769230769232,0.0,2047.0,2048.0,0.0,0.0,4.0,4.0,4.0,4.0,0.0,4.0,4.0,4.0,4.0,0.0,4.0,1.0,4.0,4.0,4.0,4.0
62.0,0.0,4213.333333333335,4247.179487179489,4200.512820512822,4227.179487179489,4186.666666666668,4369.743589743592,4195.897435897437,4175.384615384617,4144.615384615386,4186.666666666668,4204.102564102565,4212.8205128205145,4211.282051282053,4209.743589743592,0.0,2047.0,2048.0,0.0,0.0,4.0,4.0,4.0,4.0,0.0,4.0,4.0,4.0,4.0,0.0,4.0,1.0,4.0,4.0,4.0,4.0
63.0,0.0,4222.564102564104,4251.282051282053,4205.641025641027,4226.666666666668,4187.179487179489,4370.769230769232,4199.487179487181,4188.71794871795,4149.23076923077,4186.153846153848,4217.435897435899,4218.46153846154,4223.076923076925,4220.512820512822,0.0,2047.0,2048.0,0.0,0.0,4.0,4.0,4.0,4.0,0.0,4.0,4.0,4.0,4.0,0.0,4.0,1.0,4.0,4.0,4.0,4.0
64.0,0.0,4221.0256410256425,4248.20512820513,4204.615384615386,4222.564102564104,4189.743589743592,4373.333333333335,4204.615384615386,4195.897435897437,4156.923076923078,4185.641025641027,4212.8205128205145,4221.538461538463,4217.435897435899,4221.538461538463,654.0,2047.0,2048.0,0.0,0.0,4.0,4.0,4.0,4.0,0.0,4.0,4.0,4.0,4.0,0.0,4.0,1.0,4.0,4.0,4.0,4.0
65.0,0.0,4202.564102564104,4235.384615384617,4187.179487179489,4218.46153846154,4184.615384615386,4364.102564102565,4197.94871794872,4181.538461538463,4152.307692307694,4186.153846153848,4198.46153846154,4209.743589743592,4198.46153846154,4206.153846153848,824.0,2047.0,2048.0,0.0,0.0,4.0,4.0,4.0,4.0,0.0,4.0,4.0,4.0,4.0,0.0,4.0,1.0,4.0,4.0,4.0,4.0
66.0,0.0,4205.641025641027,4236.923076923078,4191.794871794873,4219.487179487181,4186.666666666668,4364.615384615386,4197.435897435899,4182.564102564104,4153.846153846155,4186.153846153848,4202.564102564104,4221.538461538463,4201.0256410256425,4204.102564102565,799.0,2047.0,2048.0,0.0,0.0,4.0,4.0,4.0,4.0,0.0,4.0,4.0,4.0,4.0,0.0,4.0,1.0,4.0,4.0,4.0,4.0
67.0,0.0,4208.20512820513,4235.897435897437,4188.20512820513,4219.487179487181,4185.128205128207,4375.897435897437,4204.615384615386,4190.769230769232,4160.000000000002,4186.153846153848,4207.179487179489,4214.871794871797,4205.128205128207,4208.20512820513,762.0,2047.0,2048.0,0.0,0.0,4.0,4.0,4.0,4.0,0.0,4.0,4.0,4.0,4.0,0.0,4.0,1.0,4.0,4.0,4.0,4.0
68.0,0.0,4197.94871794872,4230.256410256412,4182.564102564104,4217.94871794872,4186.666666666668,4376.923076923078,4206.153846153848,4184.615384615386,4154.871794871797,4186.666666666668,4201.0256410256425,4214.871794871797,4194.871794871797,4205.641025641027,0.0,2047.0,2048.0,0.0,0.0,4.0,4.0,4.0,4.0,0.0,4.0,4.0,4.0,4.0,0.0,4.0,1.0,4.0,4.0,4.0,4.0
69.0,0.0,4198.97435897436,4230.769230769232,4191.794871794873,4216.923076923078,4189.23076923077,4371.794871794873,4201.538461538463,4184.102564102565,4149.743589743592,4185.641025641027,4203.589743589745,4218.97435897436,4197.94871794872,4205.641025641027,770.0,2047.0,2048.0,0.0,0.0,4.0,4.0,4.0,4.0,0.0,4.0,4.0,4.0,4.0,0.0,4.0,1.0,4.0,4.0,4.0,4.0
70.0,0.0,4203.076923076925,4225.641025641027,4188.71794871795,4213.333333333335,4184.615384615386,4376.923076923078,4203.076923076925,4187.692307692309,4152.307692307694,4184.615384615386,4204.102564102565,4207.692307692309,4202.051282051283,4200.512820512822,803.0,2047.0,2048.0,0.0,0.0,4.0,4.0,4.0,4.0,0.0,4.0,4.0,4.0,4.0,0.0,4.0,1.0,4.0,4.0,4.0,4.0
71.0,0.0,4205.128205128207,4225.128205128207,4192.307692307694,4213.846153846155,4188.20512820513,4385.641025641027,4209.743589743592,4185.641025641027,4154.3589743589755,4185.128205128207,4198.97435897436,4219.487179487181,4192.8205128205145,4197.94871794872,789.0,2047.0,2048.0,0.0,0.0,4.0,4.0,4.0,4.0,0.0,4.0,4.0,4.0,4.0,0.0,4.0,1.0,4.0,4.0,4.0,4.0
72.0,0.0,4204.102564102565,4235.384615384617,4192.8205128205145,4216.410256410258,4186.666666666668,4382.564102564104,4207.692307692309,4185.128205128207,4153.846153846155,4184.102564102565,4197.94871794872,4212.8205128205145,4186.153846153848,4204.102564102565,624.0,2047.0,2048.0,0.0,0.0,4.0,4.0,4.0,4.0,0.0,4.0,4.0,4.0,4.0,0.0,4.0,1.0,4.0,4.0,4.0,4.0
73.0,0.0,4202.564102564104,4233.333333333335,4190.256410256412,4214.871794871797,4186.153846153848,4375.897435897437,4200.512820512822,4183.076923076925,4152.8205128205145,4184.615384615386,4197.435897435899,4210.256410256412,4184.102564102565,4205.641025641027,0.0,2047.0,2048.0,0.0,0.0,4.0,4.0,4.0,4.0,0.0,4.0,4.0,4.0,4.0,0.0,4.0,1.0,4.0,4.0,4.0,4.0
74.0,0.0,4200.000000000002,4219.487179487181,4191.282051282053,4212.8205128205145,4190.256410256412,4373.333333333335,4202.564102564104,4182.051282051283,4155.384615384617,4186.153846153848,4197.435897435899,4218.46153846154,4184.615384615386,4204.102564102565,851.0,2047.0,2048.0,0.0,0.0,4.0,4.0,4.0,4.0,0.0,4.0,4.0,4.0,4.0,0.0,4.0,1.0,4.0,4.0,4.0,4.0
75.0,0.0,4200.512820512822,4227.692307692309,4184.615384615386,4216.410256410258,4185.128205128207,4372.8205128205145,4207.179487179489,4178.46153846154,4153.846153846155,4184.615384615386,4201.0256410256425,4208.20512820513,4191.794871794873,4209.23076923077,837.0,2047.0,2048.0,0.0,0.0,4.0,4.0,4.0,4.0,0.0,4.0,4.0,4.0,4.0,0.0,4.0,1.0,4.0,4.0,4.0,4.0
76.0,0.0,4199.487179487181,4236.410256410258,4186.666666666668,4214.3589743589755,4188.20512820513,4372.8205128205145,4201.0256410256425,4170.256410256412,4148.71794871795,4185.641025641027,4199.487179487181,4215.897435897437,4190.256410256412,4206.153846153848,848.0,2047.0,2048.0,0.0,0.0,4.0,4.0,4.0,4.0,0.0,4.0,4.0,4.0,4.0,0.0,4.0,1.0,4.0,4.0,4.0,4.0
77.0,0.0,4185.641025641027,4222.564102564104,4179.487179487181,4205.128205128207,4189.23076923077,4373.846153846155,4196.410256410258,4170.256410256412,4152.307692307694,4188.20512820513,4185.641025641027,4213.333333333335,4173.846153846155,4191.282051282053,57.0,2047.0,2048.0,0.0,0.0,4.0,4.0,4.0,4.0,0.0,4.0,4.0,4.0,4.0,0.0,4.0,1.0,4.0,4.0,4.0,4.0
78.0,0.0,4186.666666666668,4228.71794871795,4181.538461538463,4211.282051282053,4188.20512820513,4382.051282051283,4199.487179487181,4178.97435897436,4157.94871794872,4187.179487179489,4180.000000000002,4215.384615384617,4170.769230769232,4190.769230769232,851.0,2047.0,2048.0,0.0,0.0,4.0,4.0,4.0,4.0,0.0,4.0,4.0,4.0,4.0,0.0,4.0,1.0,4.0,4.0,4.0,4.0
79.0,0.0,4200.000000000002,4243.589743589745,4193.333333333335,4220.000000000002,4189.23076923077,4394.3589743589755,4204.102564102565,4188.20512820513,4156.923076923078,4188.20512820513,4194.3589743589755,4220.000000000002,4184.615384615386,4198.97435897436,837.0,2047.0,2048.0,0.0,0.0,4.0,4.0,4.0,4.0,0.0,4.0,4.0,4.0,4.0,0.0,4.0,1.0,4.0,4.0,4.0,4.0
80.0,0.0,4202.564102564104,4241.538461538463,4186.666666666668,4219.487179487181,4184.615384615386,4400.512820512822,4207.692307692309,4186.153846153848,4155.897435897437,4188.71794871795,4205.641025641027,4205.641025641027,4191.794871794873,4206.666666666668,848.0,2047.0,2048.0,0.0,0.0,4.0,4.0,4.0,4.0,0.0,4.0,4.0,4.0,4.0,0.0,4.0,1.0,4.0,4.0,4.0,4.0
81.0,0.0,4215.384615384617,4253.333333333335,4200.000000000002,4229.743589743592,4189.23076923077,4391.794871794873,4200.000000000002,4170.769230769232,4149.23076923077,4186.153846153848,4195.897435897437,4221.0256410256425,4183.589743589745,4217.435897435899,57.0,2047.0,2048.0,0.0,0.0,4.0,4.0,4.0,4.0,0.0,4.0,4.0,4.0,4.0,0.0,4.0,1.0,4.0,4.0,4.0,4.0
82.0,0.0,4221.0256410256425,4262.564102564104,4205.128205128207,4237.94871794872,4188.20512820513,4377.435897435899,4191.282051282053,4163.076923076925,4142.051282051283,4185.128205128207,4186.153846153848,4220.512820512822,4176.923076923078,4216.410256410258,851.0,2047.0,2048.0,0.0,0.0,4.0,4.0,4.0,4.0,0.0,4.0,4.0,4.0,4.0,0.0,4.0,1.0,4.0,4.0,4.0,4.0
83.0,0.0,4208.71794871795,4245.641025641027,4191.282051282053,4225.641025641027,4185.641025641027,4371.794871794873,4197.94871794872,4173.333333333335,4156.923076923078,4187.179487179489,4195.897435897437,4212.8205128205145,4191.794871794873,4211.282051282053,837.0,2047.0,2048.0,0.0,0.0,4.0,4.0,4.0,4.0,0.0,4.0,4.0,4.0,4.0,0.0,4.0,1.0,4.0,4.0,4.0,4.0
84.0,0.0,4206.666666666668,4236.923076923078,4194.3589743589755,4216.923076923078,4190.256410256412,4374.3589743589755,4207.179487179489,4174.3589743589755,4168.71794871795,4185.641025641027,4207.179487179489,4222.564102564104,4206.153846153848,4213.846153846155,848.0,2047.0,2048.0,0.0,0.0,4.0,4.0,4.0,4.0,0.0,4.0,4.0,4.0,4.0,0.0,4.0,1.0,4.0,4.0,4.0,4.0
85.0,0.0,4210.256410256412,4246.153846153848,4190.256410256412,4222.051282051283,4184.615384615386,4380.512820512822,4203.589743589745,4167.692307692309,4161.538461538463,4182.564102564104,4204.615384615386,4212.307692307694,4193.846153846155,4210.769230769232,57.0,2047.0,2048.0,0.0,0.0,4.0,4.0,4.0,4.0,0.0,4.0,4.0,4.0,4.0,0.0,4.0,1.0,4.0,4.0,4.0,4.0
86.0,0.0,4208.20512820513,4249.23076923077,4190.256410256412,4222.564102564104,4186.153846153848,4393.333333333335,4198.97435897436,4176.923076923078,4162.051282051283,4185.128205128207,4196.410256410258,4217.94871794872,4178.97435897436,4202.564102564104,851.0,2047.0,2048.0,0.0,0.0,4.0,4.0,4.0,4.0,0.0,4.0,4.0,4.0,4.0,0.0,4.0,1.0,4.0,4.0,4.0,4.0
87.0,0.0,4203.589743589745,4240.512820512822,4191.794871794873,4213.333333333335,4191.282051282053,4406.153846153848,4201.0256410256425,4178.46153846154,4170.769230769232,4186.153846153848,4194.3589743589755,4216.410256410258,4182.051282051283,4197.435897435899,837.0,2047.0,2048.0,0.0,0.0,4.0,4.0,4.0,4.0,0.0,4.0,4.0,4.0,4.0,0.0,4.0,1.0,4.0,4.0,4.0,4.0
88.0,0.0,4196.410256410258,4228.71794871795,4185.641025641027,4204.615384615386,4190.769230769232,4396.410256410258,4190.769230769232,4159.487179487181,4164.102564102565,4183.589743589745,4187.179487179489,4209.23076923077,4178.97435897436,4190.256410256412,848.0,2047.0,2048.0,0.0,0.0,4.0,4.0,4.0,4.0,0.0,4.0,4.0,4.0,4.0,0.0,4.0,1.0,4.0,4.0,4.0,4.0
89.0,0.0,4187.179487179489,4214.3589743589755,4178.46153846154,4200.000000000002,4190.769230769232,4376.410256410258,4178.97435897436,4149.743589743592,4150.256410256412,4187.179487179489,4167.179487179489,4217.435897435899,4152.8205128205145,4175.384615384617,57.0,2047.0,2048.0,0.0,0.0,4.0,4.0,4.0,4.0,0.0,4.0,4.0,4.0,4.0,0.0,4.0,1.0,4.0,4.0,4.0,4.0
90.0,0.0,4183.589743589745,4206.153846153848,4168.20512820513,4194.3589743589755,4186.666666666668,4375.384615384617,4193.333333333335,4162.051282051283,4157.94871794872,4191.794871794873,4165.641025641027,4209.743589743592,4148.71794871795,4172.8205128205145,851.0,2047.0,2048.0,0.0,0.0,4.0,4.0,4.0,4.0,0.0,4.0,4.0,4.0,4.0,0.0,4.0,1.0,4.0,4.0,4.0,4.0
91.0,0.0,4197.94871794872,4216.923076923078,4185.641025641027,4201.0256410256425,4188.71794871795,4382.564102564104,4211.794871794873,4172.8205128205145,4173.333333333335,4189.23076923077,4189.23076923077,4217.435897435899,4181.0256410256425,4194.3589743589755,837.0,2047.0,2048.0,0.0,0.0,4.0,4.0,4.0,4.0,0.0,4.0,4.0,4.0,4.0,0.0,4.0,1.0,4.0,4.0,4.0,4.0
92.0,0.0,4206.666666666668,4228.71794871795,4196.410256410258,4214.871794871797,4187.692307692309,4381.538461538463,4205.641025641027,4167.179487179489,4167.692307692309,4183.589743589745,4189.23076923077,4215.384615384617,4184.615384615386,4200.000000000002,848.0,2047.0,2048.0,0.0,0.0,4.0,4.0,4.0,4.0,0.0,4.0,4.0,4.0,4.0,0.0,4.0,1.0,4.0,4.0,4.0,4.0
93.0,0.0,4210.256410256412,4235.384615384617,4190.256410256412,4221.0256410256425,4184.102564102565,4378.97435897436,4197.435897435899,4163.589743589745,4158.46153846154,4185.128205128207,4176.923076923078,4209.23076923077,4173.333333333335,4195.897435897437,57.0,2047.0,2048.0,0.0,0.0,4.0,4.0,4.0,4.0,0.0,4.0,4.0,4.0,4.0,0.0,4.0,1.0,4.0,4.0,4.0,4.0
94.0,0.0,4230.256410256412,4250.256410256412,4206.153846153848,4225.641025641027,4189.23076923077,4382.051282051283,4206.666666666668,4174.871794871797,4171.282051282053,4188.20512820513,4198.46153846154,4225.128205128207,4193.846153846155,4213.846153846155,851.0,2047.0,2048.0,0.0,0.0,4.0,4.0,4.0,4.0,0.0,4.0,4.0,4.0,4.0,0.0,4.0,1.0,4.0,4.0,4.0,4.0
95.0,0.0,4236.923076923078,4260.512820512822,4207.692307692309,4231.282051282053,4186.153846153848,4383.076923076925,4218.46153846154,4184.615384615386,4179.487179487181,4185.128205128207,4208.71794871795,4214.871794871797,4201.538461538463,4220.512820512822,837.0,2047.0,2048.0,0.0,0.0,4.0,4.0,4.0,4.0,0.0,4.0,4.0,4.0,4.0,0.0,4.0,1.0,4.0,4.0,4.0,4.0
96.0,0.0,4232.307692307694,4258.46153846154,4203.589743589745,4237.94871794872,4188.71794871795,4388.71794871795,4217.435897435899,4175.897435897437,4166.666666666668,4184.615384615386,4188.20512820513,4214.871794871797,4176.923076923078,4205.128205128207,848.0,2047.0,2048.0,0.0,0.0,4.0,4.0,4.0,4.0,0.0,4.0,4.0,4.0,4.0,0.0,4.0,1.0,4.0,4.0,4.0,4.0
97.0,0.0,4235.384615384617,4255.897435897437,4205.641025641027,4239.487179487181,4192.307692307694,4392.307692307694,4207.692307692309,4167.692307692309,4165.128205128207,4187.692307692309,4183.076923076925,4216.923076923078,4171.282051282053,4200.512820512822,57.0,2047.0,2048.0,0.0,0.0,4.0,4.0,4.0,4.0,0.0,4.0,4.0,4.0,4.0,0.0,4.0,1.0,4.0,4.0,4.0,4.0
98.0,0.0,4237.94871794872,4256.410256410258,4198.46153846154,4235.897435897437,4188.20512820513,4385.128205128207,4200.000000000002,4166.666666666668,4167.692307692309,4188.71794871795,4186.666666666668,4208.71794871795,4172.307692307694,4203.076923076925,851.0,2047.0,2048.0,0.0,0.0,4.0,4.0,4.0,4.0,0.0,4.0,4.0,4.0,4.0,0.0,4.0,1.0,4.0,4.0,4.0,4.0
99.0,0.0,4237.94871794872,4252.8205128205145,4204.615384615386,4240.512820512822,4192.307692307694,4376.410256410258,4200.000000000002,4166.153846153848,4156.923076923078,4185.641025641027,4182.051282051283,4221.0256410256425,4160.512820512822,4202.051282051283,837.0,2047.0,2048.0,0.0,0.0,4.0,4.0,4.0,4.0,0.0,4.0,4.0,4.0,4.0,0.0,4.0,1.0,4.0,4.0,4.0,4.0
100.0,0.0,4233.846153846155,4245.128205128207,4208.20512820513,4247.179487179489,4190.256410256412,4364.102564102565,4203.076923076925,4166.666666666668,4155.897435897437,4183.589743589745,4186.666666666668,4212.8205128205145,4170.769230769232,4203.589743589745,848.0,2047.0,2048.0,0.0,0.0,4.0,4.0,4.0,4.0,0.0,4.0,4.0,4.0,4.0,0.0,4.0,1.0,4.0,4.0,4.0,4.0
101.0,0.0,4230.256410256412,4237.94871794872,4210.769230769232,4244.102564102565,4188.71794871795,4346.153846153848,4206.153846153848,4170.769230769232,4169.743589743592,4186.153846153848,4198.46153846154,4214.871794871797,4187.692307692309,4207.179487179489,57.0,2047.0,2048.0,0.0,0.0,4.0,4.0,4.0,4.0,0.0,4.0,4.0,4.0,4.0,0.0,4.0,1.0,4.0,4.0,4.0,4.0
102.0,0.0,4225.128205128207,4228.71794871795,4208.71794871795,4240.512820512822,4187.179487179489,4332.8205128205145,4207.692307692309,4173.846153846155,4174.871794871797,4186.666666666668,4200.512820512822,4221.0256410256425,4187.179487179489,4212.307692307694,851.0,2047.0,2048.0,0.0,0.0,4.0,4.0,4.0,4.0,0.0,4.0,4.0,4.0,4.0,0.0,4.0,1.0,4.0,4.0,4.0,4.0
103.0,0.0,4221.538461538463,4225.128205128207,4196.410256410258,4241.0256410256425,4184.102564102565,4329.743589743592,4199.487179487181,4163.589743589745,4165.128205128207,4184.615384615386,4189.743589743592,4211.282051282053,4173.333333333335,4213.333333333335,837.0,2047.0,2048.0,0.0,0.0,4.0,4.0,4.0,4.0,0.0,4.0,4.0,4.0,4.0,0.0,4.0,1.0,4.0,4.0,4.0,4.0
104.0,0.0,4222.051282051283,4224.615384615386,4202.564102564104,4242.564102564104,4191.794871794873,4337.94871794872,4195.897435897437,4157.435897435899,4166.666666666668,4185.641025641027,4180.512820512822,4218.97435897436,4159.487179487181,4204.615384615386,848.0,2047.0,2048.0,0.0,0.0,4.0,4.0,4.0,4.0,0.0,4.0,4.0,4.0,4.0,0.0,4.0,1.0,4.0,4.0,4.0,4.0
105.0,0.0,4215.384615384617,4221.538461538463,4200.000000000002,4238.97435897436,4188.20512820513,4356.923076923078,4207.692307692309,4163.589743589745,4176.923076923078,4186.666666666668,4185.128205128207,4209.743589743592,4165.641025641027,4200.000000000002,57.0,2047.0,2048.0,0.0,0.0,4.0,4.0,4.0,4.0,0.0,4.0,4.0,4.0,4.0,0.0,4.0,1.0,4.0,4.0,4.0,4.0
106.0,0.0,4213.846153846155,4223.076923076925,4193.846153846155,4235.384615384617,4183.589743589745,4367.179487179488,4211.794871794873,4158.97435897436,4164.615384615386,4185.641025641027,4173.333333333335,4213.333333333335,4161.0256410256425,4194.871794871797,851.0,2047.0,2048.0,0.0,0.0,4.0,4.0,4.0,4.0,0.0,4.0,4.0,4.0,4.0,0.0,4.0,1.0,4.0,4.0,4.0,4.0
107.0,0.0,4218.97435897436,4222.051282051283,4201.0256410256425,4238.46153846154,4189.23076923077,4360.000000000002,4210.256410256412,4156.923076923078,4156.923076923078,4186.153846153848,4158.46153846154,4220.512820512822,4142.564102564104,4189.743589743592,837.0,2047.0,2048.0,0.0,0.0,4.0,4.0,4.0,4.0,0.0,4.0,4.0,4.0,4.0,0.0,4.0,1.0,4.0,4.0,4.0,4.0
108.0,0.0,4221.0256410256425,4215.384615384617,4199.487179487181,4242.564102564104,4190.769230769232,4356.410256410258,4214.3589743589755,4174.3589743589755,4173.846153846155,4185.641025641027,4170.769230769232,4207.692307692309,4151.794871794873,4196.410256410258,848.0,2047.0,2048.0,0.0,0.0,4.0,4.0,4.0,4.0,0.0,4.0,4.0,4.0,4.0,0.0,4.0,1.0,4.0,4.0,4.0,4.0
109.0,0.0,4226.666666666668,4221.0256410256425,4202.564102564104,4242.051282051283,4190.769230769232,4359.487179487181,4209.743589743592,4172.307692307694,4177.435897435899,4186.666666666668,4179.487179487181,4217.435897435899,4164.615384615386,4195.897435897437,57.0,2047.0,2048.0,0.0,0.0,4.0,4.0,4.0,4.0,0.0,4.0,4.0,4.0,4.0,0.0,4.0,1.0,4.0,4.0,4.0,4.0
110.0,0.0,4225.641025641027,4223.076923076925,4194.871794871797,4242.051282051283,4185.641025641027,4350.769230769232,4196.923076923078,4152.8205128205145,4171.282051282053,4189.743589743592,4167.179487179489,4211.794871794873,4153.846153846155,4181.538461538463,851.0,2047.0,2048.0,0.0,0.0,4.0,4.0,4.0,4.0,0.0,4.0,4.0,4.0,4.0,0.0,4.0,1.0,4.0,4.0,4.0,4.0
111.0,0.0,4212.8205128205145,4207.692307692309,4189.23076923077,4241.538461538463,4186.153846153848,4337.94871794872,4199.487179487181,4157.435897435899,4183.589743589745,4187.179487179489,4168.20512820513,4209.23076923077,4156.923076923078,4183.589743589745,837.0,2047.0,2048.0,0.0,0.0,4.0,4.0,4.0,4.0,0.0,4.0,4.0,4.0,4.0,0.0,4.0,1.0,4.0,4.0,4.0,4.0
112.0,0.0,4207.179487179489,4200.512820512822,4193.333333333335,4233.333333333335,4189.743589743592,4333.333333333335,4204.615384615386,4161.538461538463,4186.666666666668,4184.102564102565,4177.94871794872,4216.923076923078,4169.743589743592,4191.794871794873,848.0,2047.0,2048.0,0.0,0.0,4.0,4.0,4.0,4.0,0.0,4.0,4.0,4.0,4.0,0.0,4.0,1.0,4.0,4.0,4.0,4.0
113.0,0.0,4206.666666666668,4209.23076923077,4182.051282051283,4228.71794871795,4185.641025641027,4338.46153846154,4197.435897435899,4149.23076923077,4177.435897435899,4185.641025641027,4169.743589743592,4207.179487179489,4156.923076923078,4180.512820512822,57.0,2047.0,2048.0,0.0,0.0,4.0,4.0,4.0,4.0,0.0,4.0,4.0,4.0,4.0,0.0,4.0,1.0,4.0,4.0,4.0,4.0
114.0,0.0,4207.692307692309,4209.23076923077,4187.179487179489,4234.871794871797,4191.794871794873,4359.487179487181,4202.051282051283,4151.794871794873,4181.0256410256425,4186.666666666668,4168.71794871795,4215.897435897437,4151.794871794873,4176.410256410258,851.0,2047.0,2048.0,0.0,0.0,4.0,4.0,4.0,4.0,0.0,4.0,4.0,4.0,4.0,0.0,4.0,1.0,4.0,4.0,4.0,4.0
115.0,0.0,4206.153846153848,4196.410256410258,4189.23076923077,4236.923076923078,4192.8205128205145,4380.000000000002,4216.923076923078,4170.769230769232,4189.743589743592,4185.641025641027,4182.564102564104,4209.743589743592,4163.076923076925,4182.051282051283,837.0,2047.0,2048.0,0.0,0.0,4.0,4.0,4.0,4.0,0.0,4.0,4.0,4.0,4.0,0.0,4.0,1.0,4.0,4.0,4.0,4.0
116.0,0.0,4203.076923076925,4190.769230769232,4182.051282051283,4232.8205128205145,4187.692307692309,4372.8205128205145,4214.3589743589755,4174.871794871797,4191.282051282053,4186.153846153848,4181.0256410256425,4207.179487179489,4157.435897435899,4174.871794871797,848.0,2047.0,2048.0,0.0,0.0,4.0,4.0,4.0,4.0,0.0,4.0,4.0,4.0,4.0,0.0,4.0,1.0,4.0,4.0,4.0,4.0
117.0,0.0,4196.410256410258,4188.71794871795,4180.512820512822,4229.743589743592,4188.20512820513,4351.282051282053,4199.487179487181,4155.897435897437,4184.615384615386,4186.153846153848,4171.794871794873,4218.97435897436,4147.692307692309,4165.128205128207,57.0,2047.0,2048.0,0.0,0.0,4.0,4.0,4.0,4.0,0.0,4.0,4.0,4.0,4.0,0.0,4.0,1.0,4.0,4.0,4.0,4.0
118.0,0.0,4186.666666666668,4183.076923076925,4172.307692307694,4226.153846153848,4183.589743589745,4336.923076923078,4198.97435897436,4148.71794871795,4173.333333333335,4183.589743589745,4168.71794871795,4208.20512820513,4152.8205128205145,4166.666666666668,851.0,2047.0,2048.0,0.0,0.0,4.0,4.0,4.0,4.0,0.0,4.0,4.0,4.0,4.0,0.0,4.0,1.0,4.0,4.0,4.0,4.0
119.0,0.0,4188.71794871795,4181.0256410256425,4175.897435897437,4220.512820512822,4188.20512820513,4330.256410256412,4203.589743589745,4155.384615384617,4170.769230769232,4185.128205128207,4167.692307692309,4212.307692307694,4155.384615384617,4169.743589743592,837.0,2047.0,2048.0,0.0,0.0,4.0,4.0,4.0,4.0,0.0,4.0,4.0,4.0,4.0,0.0,4.0,1.0,4.0,4.0,4.0,4.0
120.0,0.0,4181.538461538463,4171.794871794873,4168.20512820513,4211.794871794873,4189.23076923077,4336.410256410258,4199.487179487181,4153.846153846155,4174.871794871797,4186.666666666668,4161.538461538463,4207.692307692309,4140.000000000002,4159.487179487181,848.0,2047.0,2048.0,0.0,0.0,4.0,4.0,4.0,4.0,0.0,4.0,4.0,4.0,4.0,0.0,4.0,1.0,4.0,4.0,4.0,4.0
121.0,0.0,4178.46153846154,4170.769230769232,4163.076923076925,4211.794871794873,4187.179487179489,4340.512820512822,4198.97435897436,4155.384615384617,4179.487179487181,4185.641025641027,4161.538461538463,4207.692307692309,4137.94871794872,4158.46153846154,57.0,2047.0,2048.0,0.0,0.0,4.0,4.0,4.0,4.0,0.0,4.0,4.0,4.0,4.0,0.0,4.0,1.0,4.0,4.0,4.0,4.0
122.0,0.0,4207.692307692309,4191.282051282053,4186.153846153848,4227.179487179489,4192.307692307694,4329.23076923077,4203.076923076925,4166.153846153848,4185.128205128207,4185.641025641027,4180.000000000002,4223.076923076925,4172.307692307694,4182.051282051283,851.0,2047.0,2048.0,0.0,0.0,4.0,4.0,4.0,4.0,0.0,4.0,4.0,4.0,4.0,0.0,4.0,1.0,4.0,4.0,4.0,4.0
123.0,0.0,4226.153846153848,4204.615384615386,4191.282051282053,4238.46153846154,4189.23076923077,4326.666666666668,4208.20512820513,4171.282051282053,4186.153846153848,4186.153846153848,4198.46153846154,4211.794871794873,4194.3589743589755,4202.051282051283,837.0,2047.0,2048.0,0.0,0.0,4.0,4.0,4.0,4.0,0.0,4.0,4.0,4.0,4.0,0.0,4.0,1.0,4.0,4.0,4.0,4.0
124.0,0.0,4224.615384615386,4201.538461538463,4192.307692307694,4241.538461538463,4188.71794871795,4341.0256410256425,4213.846153846155,4171.282051282053,4191.794871794873,4186.153846153848,4198.46153846154,4216.923076923078,4184.102564102565,4204.102564102565,848.0,2047.0,2048.0,0.0,0.0,4.0,4.0,4.0,4.0,0.0,4.0,4.0,4.0,4.0,0.0,4.0,1.0,4.0,4.0,4.0,4.0
125.0,0.0,4224.102564102565,4195.897435897437,4196.410256410258,4245.641025641027,4185.641025641027,4351.794871794873,4215.897435897437,4172.8205128205145,4200.000000000002,4185.641025641027,4192.307692307694,4216.923076923078,4180.000000000002,4202.051282051283,57.0,2047.0,2048.0,0.0,0.0,4.0,4.0,4.0,4.0,0.0,4.0,4.0,4.0,4.0,0.0,4.0,1.0,4.0,4.0,4.0,4.0
126.0,0.0,4222.051282051283,4194.871794871797,4191.282051282053,4243.076923076925,4185.128205128207,4353.333333333335,4212.307692307694,4171.282051282053,4194.3589743589755,4186.153846153848,4186.666666666668,4208.20512820513,4178.97435897436,4195.384615384617,851.0,2047.0,2048.0,0.0,0.0,4.0,4.0,4.0,4.0,0.0,4.0,4.0,4.0,4.0,0.0,4.0,1.0,4.0,4.0,4.0,4.0
127.0,0.0,4216.923076923078,4195.384615384617,4188.71794871795,4235.897435897437,4190.256410256412,4348.20512820513,4203.589743589745,4163.076923076925,4184.102564102565,4185.128205128207,4176.410256410258,4216.410256410258,4165.128205128207,4183.589743589745,837.0,2047.0,2048.0,0.0,0.0,4.0,4.0,4.0,4.0,0.0,4.0,4.0,4.0,4.0,0.0,4.0,1.0,4.0,4.0,4.0,4.0
128.0,0.0,4214.3589743589755,4193.846153846155,4186.153846153848,4236.410256410258,4183.076923076925,4331.282051282053,4197.435897435899,4156.410256410258,4183.076923076925,4184.615384615386,4175.384615384617,4208.20512820513,4166.153846153848,4185.641025641027,848.0,2047.0,2048.0,0.0,0.0,4.0,4.0,4.0,4.0,0.0,4.0,4.0,4.0,4.0,0.0,4.0,1.0,4.0,4.0,4.0,4.0
0.0,0.0,4224.102564102565,4194.3589743589755,4199.487179487181,4249.743589743592,4183.589743589745,4315.897435897437,4205.641025641027,4161.538461538463,4185.641025641027,4186.153846153848,4191.282051282053,4215.897435897437,4185.641025641027,4203.076923076925,655.0,2047.0,2048.0,0.0,0.0,4.0,4.0,4.0,4.0,0.0,4.0,4.0,4.0,4.0,0.0,4.0,1.0,4.0,4.0,4.0,4.0
1.0,0.0,4225.128205128207,4193.846153846155,4204.102564102565,4258.97435897436,4187.179487179489,4307.692307692309,4210.769230769232,4168.71794871795,4186.666666666668,4186.153846153848,4196.923076923078,4215.384615384617,4192.307692307694,4207.692307692309,824.0,2047.0,2048.0,0.0,0.0,4.0,4.0,4.0,4.0,0.0,4.0,4.0,4.0,4.0,0.0,4.0,1.0,4.0,4.0,4.0,4.0
2.0,0.0,4214.871794871797,4193.333333333335,4192.8205128205145,4251.282051282053,4188.71794871795,4307.692307692309,4208.71794871795,4166.666666666668,4193.333333333335,4185.128205128207,4186.666666666668,4206.153846153848,4178.97435897436,4194.871794871797,799.0,2047.0,2048.0,0.0,0.0,4.0,4.0,4.0,4.0,0.0,4.0,4.0,4.0,4.0,0.0,4.0,1.0,4.0,4.0,4.0,4.0
3.0,0.0,4214.3589743589755,4192.8205128205145,4196.410256410258,4240.512820512822,4193.846153846155,4323.076923076925,4212.8205128205145,4168.71794871795,4198.46153846154,4186.153846153848,4184.615384615386,4217.94871794872,4165.641025641027,4190.256410256412,762.0,2047.0,2048.0,0.0,0.0,4.0,4.0,4.0,4.0,0.0,4.0,4.0,4.0,4.0,0.0,4.0,1.0,4.0,4.0,4.0,4.0
4.0,0.0,4217.94871794872,4191.794871794873,4191.794871794873,4244.615384615386,4189.743589743592,4342.051282051283,4221.538461538463,4177.94871794872,4193.333333333335,4186.153846153848,4193.333333333335,4210.256410256412,4170.769230769232,4195.897435897437,0.0,2047.0,2048.0,0.0,0.0,4.0,4.0,4.0,4.0,0.0,4.0,4.0,4.0,4.0,0.0,4.0,1.0,4.0,4.0,4.0,4.0
5.0,0.0,4218.97435897436,4195.384615384617,4192.307692307694,4252.8205128205145,4190.769230769232,4347.179487179488,4217.94871794872,4165.641025641027,4182.564102564104,4185.128205128207,4191.282051282053,4212.307692307694,4174.871794871797,4198.97435897436,770.0,2047.0,2048.0,0.0,0.0,4.0,4.0,4.0,4.0,0.0,4.0,4.0,4.0,4.0,0.0,4.0,1.0,4.0,4.0,4.0,4.0
6.0,0.0,4206.666666666668,4192.8205128205145,4189.23076923077,4240.000000000002,4191.282051282053,4341.538461538463,4209.23076923077,4151.282051282053,4183.589743589745,4186.153846153848,4175.897435897437,4214.3589743589755,4156.410256410258,4187.179487179489,803.0,2047.0,2048.0,0.0,0.0,4.0,4.0,4.0,4.0,0.0,4.0,4.0,4.0,4.0,0.0,4.0,1.0,4.0,4.0,4.0,4.0
7.0,0.0,4190.256410256412,4180.000000000002,4172.8205128205145,4221.0256410256425,4185.641025641027,4340.512820512822,4212.8205128205145,4164.615384615386,4191.282051282053,4186.153846153848,4165.641025641027,4206.666666666668,4140.512820512822,4169.23076923077,790.0,2047.0,2048.0,0.0,0.0,4.0,4.0,4.0,4.0,0.0,4.0,4.0,4.0,4.0,0.0,4.0,1.0,4.0,4.0,4.0,4.0
8.0,0.0,4194.3589743589755,4181.538461538463,4182.564102564104,4226.666666666668,4190.256410256412,4344.615384615386,4214.3589743589755,4164.615384615386,4183.589743589745,4185.641025641027,4170.256410256412,4218.46153846154,4148.20512820513,4172.307692307694,624.0,2047.0,2048.0,0.0,0.0,4.0,4.0,4.0,4.0,0.0,4.0,4.0,4.0,4.0,0.0,4.0,1.0,4.0,4.0,4.0,4.0
9.0,0.0,4201.538461538463,4193.846153846155,4189.23076923077,4236.923076923078,4188.20512820513,4341.0256410256425,4203.589743589745,4140.000000000002,4175.384615384617,4186.153846153848,4171.282051282053,4209.23076923077,4160.000000000002,4181.538461538463,0.0,2047.0,2048.0,0.0,0.0,4.0,4.0,4.0,4.0,0.0,4.0,4.0,4.0,4.0,0.0,4.0,1.0,4.0,4.0,4.0,4.0
10.0,0.0,4202.051282051283,4194.3589743589755,4185.128205128207,4234.3589743589755,4186.666666666668,4331.282051282053,4195.384615384617,4132.8205128205145,4180.000000000002,4186.153846153848,4163.589743589745,4211.282051282053,4152.307692307694,4172.8205128205145,854.0,2047.0,2048.0,0.0,0.0,4.0,4.0,4.0,4.0,0.0,4.0,4.0,4.0,4.0,0.0,4.0,1.0,4.0,4.0,4.0,4.0
11.0,0.0,4206.153846153848,4189.23076923077,4186.153846153848,4235.897435897437,4189.23076923077,4322.564102564104,4196.410256410258,4148.20512820513,4185.128205128207,4185.128205128207,4170.769230769232,4216.410256410258,4148.71794871795,4172.307692307694,837.0,2047.0,2048.0,0.0,0.0,4.0,4.0,4.0,4.0,0.0,4.0,4.0,4.0,4.0,0.0,4.0,1.0,4.0,4.0,4.0,4.0
12.0,0.0,4212.8205128205145,4192.307692307694,4184.615384615386,4237.94871794872,4187.179487179489,4316.923076923078,4200.512820512822,4155.897435897437,4190.256410256412,4184.615384615386,4185.641025641027,4208.20512820513,4165.641025641027,4191.794871794873,848.0,2047.0,2048.0,0.0,0.0,4.0,4.0,4.0,4.0,0.0,4.0,4.0,4.0,4.0,0.0,4.0,1.0,4.0,4.0,4.0,4.0
13.0,0.0,4220.000000000002,4195.384615384617,4193.333333333335,4235.897435897437,4188.71794871795,4323.589743589745,4202.051282051283,4160.512820512822,4201.0256410256425,4184.615384615386,4187.179487179489,4218.46153846154,4171.282051282053,4197.435897435899,57.0,2047.0,2048.0,0.0,0.0,4.0,4.0,4.0,4.0,0.0,4.0,4.0,4.0,4.0,0.0,4.0,1.0,4.0,4.0,4.0,4.0
14.0,0.0,4218.46153846154,4194.3589743589755,4190.769230769232,4237.94871794872,4185.641025641027,4348.71794871795,4200.512820512822,4168.20512820513,4201.0256410256425,4185.128205128207,4182.564102564104,4209.743589743592,4157.435897435899,4185.641025641027,854.0,2047.0,2048.0,0.0,0.0,4.0,4.0,4.0,4.0,0.0,4.0,4.0,4.0,4.0,0.0,4.0,1.0,4.0,4.0,4.0,4.0
15.0,0.0,4210.256410256412,4190.769230769232,4185.641025641027,4236.923076923078,4188.71794871795,4369.23076923077,4203.589743589745,4174.871794871797,4195.384615384617,4185.641025641027,4179.487179487181,4210.769230769232,4146.666666666668,4180.000000000002,837.0,2047.0,2048.0,0.0,0.0,4.0,4.0,4.0,4.0,0.0,4.0,4.0,4.0,4.0,0.0,4.0,1.0,4.0,4.0,4.0,4.0
16.0,0.0,4203.076923076925,4177.94871794872,4187.179487179489,4227.692307692309,4190.769230769232,4361.0256410256425,4213.333333333335,4183.076923076925,4208.71794871795,4185.641025641027,4180.000000000002,4219.487179487181,4154.871794871797,4182.564102564104,0.0,2047.0,2048.0,0.0,0.0,4.0,4.0,4.0,4.0,0.0,4.0,4.0,4.0,4.0,0.0,4.0,1.0,4.0,4.0,4.0,4.0
17.0,0.0,4202.051282051283,4170.256410256412,4182.051282051283,4224.615384615386,4183.076923076925,4343.589743589745,4210.256410256412,4177.94871794872,4215.384615384617,4185.128205128207,4182.051282051283,4210.769230769232,4165.641025641027,4189.23076923077,0.0,2047.0,2048.0,0.0,0.0,4.0,4.0,4.0,4.0,0.0,4.0,4.0,4.0,4.0,0.0,4.0,1.0,4.0,4.0,4.0,4.0
18.0,0.0,4206.153846153848,4175.897435897437,4191.282051282053,4230.256410256412,4188.71794871795,4340.000000000002,4200.000000000002,4166.666666666668,4199.487179487181,4185.641025641027,4184.102564102565,4216.410256410258,4160.000000000002,4189.743589743592,0.0,2047.0,2048.0,0.0,0.0,4.0,4.0,4.0,4.0,0.0,4.0,4.0,4.0,4.0,0.0,4.0,1.0,4.0,4.0,4.0,4.0
19.0,0.0,4202.051282051283,4174.3589743589755,4189.743589743592,4225.641025641027,4189.743589743592,4339.487179487181,4198.97435897436,4165.128205128207,4195.897435897437,4185.641025641027,4184.102564102565,4205.128205128207,4164.102564102565,4181.538461538463,0.0,2047.0,2048.0,0.0,0.0,4.0,4.0,4.0,4.0,0.0,4.0,4.0,4.0,4.0,0.0,4.0,1.0,4.0,4.0,4.0,4.0
20.0,0.0,4205.128205128207,4172.307692307694,4187.692307692309,4222.564102564104,4185.128205128207,4342.564102564104,4204.615384615386,4171.794871794873,4212.307692307694,4185.128205128207,4184.615384615386,4208.71794871795,4181.0256410256425,4185.128205128207,0.0,2047.0,2048.0,0.0,0.0,4.0,4.0,4.0,4.0,0.0,4.0,4.0,4.0,4.0,0.0,4.0,1.0,4.0,4.0,4.0,4.0
21.0,0.0,4208.71794871795,4172.307692307694,4192.8205128205145,4225.641025641027,4188.71794871795,4345.128205128207,4208.71794871795,4171.794871794873,4211.794871794873,4185.128205128207,4185.128205128207,4222.051282051283,4180.512820512822,4191.282051282053,0.0,2047.0,2048.0,0.0,0.0,4.0,4.0,4.0,4.0,0.0,4.0,4.0,4.0,4.0,0.0,4.0,1.0,4.0,4.0,4.0,4.0
22.0,0.0,4191.794871794873,4163.589743589745,4180.512820512822,4218.97435897436,4188.20512820513,4329.743589743592,4200.512820512822,4165.641025641027,4197.435897435899,4185.641025641027,4179.487179487181,4205.641025641027,4169.23076923077,4178.46153846154,0.0,2047.0,2048.0,0.0,0.0,4.0,4.0,4.0,4.0,0.0,4.0,4.0,4.0,4.0,0.0,4.0,1.0,4.0,4.0,4.0,4.0
23.0,0.0,4188.71794871795,4158.97435897436,4185.641025641027,4214.871794871797,4190.769230769232,4314.871794871797,4189.23076923077,4163.076923076925,4203.076923076925,4186.153846153848,4180.512820512822,4213.846153846155,4179.487179487181,4177.94871794872,0.0,2047.0,2048.0,0.0,0.0,4.0,4.0,4.0,4.0,0.0,4.0,4.0,4.0,4.0,0.0,4.0,1.0,4.0,4.0,4.0,4.0
24.0,0.0,4201.0256410256425,4163.076923076925,4192.307692307694,4223.076923076925,4190.256410256412,4323.076923076925,4195.897435897437,4169.743589743592,4217.94871794872,4185.128205128207,4194.871794871797,4213.846153846155,4195.897435897437,4192.8205128205145,0.0,2047.0,2048.0,0.0,0.0,4.0,4.0,4.0,4.0,0.0,4.0,4.0,4.0,4.0,0.0,4.0,1.0,4.0,4.0,4.0,4.0
25.0,0.0,4202.051282051283,4163.076923076925,4187.692307692309,4224.615384615386,4188.71794871795,4339.487179487181,4208.20512820513,4179.487179487181,4216.923076923078,4185.128205128207,4195.897435897437,4210.769230769232,4185.641025641027,4189.743589743592,0.0,2047.0,2048.0,0.0,0.0,4.0,4.0,4.0,4.0,0.0,4.0,4.0,4.0,4.0,0.0,4.0,1.0,4.0,4.0,4.0,4.0
26.0,0.0,4198.46153846154,4155.384615384617,4187.179487179489,4216.410256410258,4190.769230769232,4338.97435897436,4203.076923076925,4178.97435897436,4214.3589743589755,4186.666666666668,4190.769230769232,4219.487179487181,4178.97435897436,4181.538461538463,0.0,2047.0,2048.0,0.0,0.0,4.0,4.0,4.0,4.0,0.0,4.0,4.0,4.0,4.0,0.0,4.0,1.0,4.0,4.0,4.0,4.0
27.0,0.0,4205.128205128207,4153.846153846155,4188.71794871795,4217.435897435899,4186.666666666668,4328.20512820513,4197.94871794872,4175.384615384617,4216.923076923078,4185.641025641027,4203.589743589745,4211.282051282053,4197.435897435899,4196.410256410258,0.0,2047.0,2048.0,0.0,0.0,4.0,4.0,4.0,4.0,0.0,4.0,4.0,4.0,4.0,0.0,4.0,1.0,4.0,4.0,4.0,4.0
28.0,0.0,4214.871794871797,4159.487179487181,4201.0256410256425,4221.538461538463,4188.20512820513,4328.71794871795,4202.051282051283,4168.20512820513,4207.179487179489,4185.128205128207,4207.179487179489,4220.000000000002,4201.538461538463,4207.692307692309,0.0,2047.0,2048.0,0.0,0.0,4.0,4.0,4.0,4.0,0.0,4.0,4.0,4.0,4.0,0.0,4.0,1.0,4.0,4.0,4.0,4.0
29.0,0.0,4212.8205128205145,4158.97435897436,4196.410256410258,4222.051282051283,4187.692307692309,4334.3589743589755,4198.97435897436,4162.051282051283,4195.897435897437,4185.641025641027,4192.307692307694,4216.923076923078,4185.128205128207,4196.410256410258,0.0,2047.0,2048.0,0.0,0.0,4.0,4.0,4.0,4.0,0.0,4.0,4.0,4.0,4.0,0.0,4.0,1.0,4.0,4.0,4.0,4.0
30.0,0.0,4216.410256410258,4159.487179487181,4192.307692307694,4225.641025641027,4187.692307692309,4325.128205128207,4187.179487179489,4162.564102564104,4197.435897435899,4185.641025641027,4193.846153846155,4212.8205128205145,4187.692307692309,4195.384615384617,0.0,2047.0,2048.0,0.0,0.0,4.0,4.0,4.0,4.0,0.0,4.0,4.0,4.0,4.0,0.0,4.0,1.0,4.0,4.0,4.0,4.0
31.0,0.0,4222.564102564104,4163.076923076925,4204.102564102565,4227.179487179489,4191.282051282053,4311.794871794873,4181.0256410256425,4157.94871794872,4198.97435897436,4185.128205128207,4205.641025641027,4222.051282051283,4197.435897435899,4206.666666666668,0.0,2047.0,2048.0,0.0,0.0,4.0,4.0,4.0,4.0,0.0,4.0,4.0,4.0,4.0,0.0,4.0,1.0,4.0,4.0,4.0,4.0
32.0,0.0,4210.769230769232,4160.000000000002,4192.8205128205145,4224.102564102565,4184.102564102565,4307.179487179489,4183.076923076925,4150.769230769232,4198.46153846154,4184.615384615386,4198.97435897436,4208.20512820513,4189.23076923077,4200.000000000002,0.0,2047.0,2048.0,0.0,0.0,4.0,4.0,4.0,4.0,0.0,4.0,4.0,4.0,4.0,0.0,4.0,1.0,4.0,4.0,4.0,4.0
33.0,0.0,4202.564102564104,4155.897435897437,4188.71794871795,4229.743589743592,4186.666666666668,4305.641025641027,4182.051282051283,4154.871794871797,4199.487179487181,4185.128205128207,4190.769230769232,4216.923076923078,4188.20512820513,4194.3589743589755,0.0,2047.0,2048.0,0.0,0.0,4.0,4.0,4.0,4.0,0.0,4.0,4.0,4.0,4.0,0.0,4.0,1.0,4.0,4.0,4.0,4.0
34.0,0.0,4205.128205128207,4158.97435897436,4191.794871794873,4235.897435897437,4191.794871794873,4312.8205128205145,4188.20512820513,4166.153846153848,4198.97435897436,4185.641025641027,4194.3589743589755,4218.46153846154,4192.8205128205145,4195.897435897437,0.0,2047.0,2048.0,0.0,0.0,4.0,4.0,4.0,4.0,0.0,4.0,4.0,4.0,4.0,0.0,4.0,1.0,4.0,4.0,4.0,4.0
35.0,0.0,4207.692307692309,4168.20512820513,4188.20512820513,4233.846153846155,4190.769230769232,4337.94871794872,4198.97435897436,4171.282051282053,4202.051282051283,4185.641025641027,4192.8205128205145,4208.20512820513,4184.615384615386,4192.307692307694,0.0,2047.0,2048.0,0.0,0.0,4.0,4.0,4.0,4.0,0.0,4.0,4.0,4.0,4.0,0.0,4.0,1.0,4.0,4.0,4.0,4.0
36.0,0.0,4211.282051282053,4168.71794871795,4194.3589743589755,4234.3589743589755,4190.256410256412,4351.794871794873,4191.282051282053,4163.589743589745,4204.102564102565,4185.641025641027,4189.23076923077,4216.410256410258,4182.051282051283,4192.8205128205145,0.0,2047.0,2048.0,0.0,0.0,4.0,4.0,4.0,4.0,0.0,4.0,4.0,4.0,4.0,0.0,4.0,1.0,4.0,4.0,4.0,4.0
37.0,0.0,4210.769230769232,4165.128205128207,4191.282051282053,4237.435897435899,4185.128205128207,4347.179487179488,4182.051282051283,4158.97435897436,4201.538461538463,4184.102564102565,4189.23076923077,4208.20512820513,4186.666666666668,4197.94871794872,0.0,2047.0,2048.0,0.0,0.0,4.0,4.0,4.0,4.0,0.0,4.0,4.0,4.0,4.0,0.0,4.0,1.0,4.0,4.0,4.0,4.0
38.0,0.0,4214.871794871797,4175.897435897437,4195.384615384617,4241.538461538463,4189.743589743592,4342.564102564104,4188.71794871795,4165.128205128207,4198.46153846154,4184.615384615386,4189.23076923077,4215.384615384617,4182.051282051283,4203.589743589745,0.0,2047.0,2048.0,0.0,0.0,4.0,4.0,4.0,4.0,0.0,4.0,4.0,4.0,4.0,0.0,4.0,1.0,4.0,4.0,4.0,4.0
39.0,0.0,4215.897435897437,4173.333333333335,4198.46153846154,4239.487179487181,4192.307692307694,4338.97435897436,4190.769230769232,4166.666666666668,4202.051282051283,4189.23076923077,4191.282051282053,4216.410256410258,4181.0256410256425,4208.20512820513,0.0,2047.0,2048.0,0.0,0.0,4.0,4.0,4.0,4.0,0.0,4.0,4.0,4.0,4.0,0.0,4.0,1.0,4.0,4.0,4.0,4.0
40.0,0.0,4211.282051282053,4158.46153846154,4192.307692307694,4238.46153846154,4188.71794871795,4336.923076923078,4193.846153846155,4170.256410256412,4213.333333333335,4191.282051282053,4201.0256410256425,4210.256410256412,4194.3589743589755,4210.769230769232,0.0,2047.0,2048.0,0.0,0.0,4.0,4.0,4.0,4.0,0.0,4.0,4.0,4.0,4.0,0.0,4.0,1.0,4.0,4.0,4.0,4.0
41.0,0.0,4216.923076923078,4168.20512820513,4201.0256410256425,4248.71794871795,4191.282051282053,4343.589743589745,4202.051282051283,4180.512820512822,4213.846153846155,4186.666666666668,4204.102564102565,4223.076923076925,4199.487179487181,4207.692307692309,0.0,2047.0,2048.0,0.0,0.0,4.0,4.0,4.0,4.0,0.0,4.0,4.0,4.0,4.0,0.0,4.0,1.0,4.0,4.0,4.0,4.0
42.0,0.0,4215.384615384617,4180.512820512822,4197.435897435899,4248.20512820513,4185.641025641027,4342.564102564104,4193.333333333335,4170.769230769232,4201.538461538463,4183.076923076925,4190.769230769232,4211.794871794873,4188.20512820513,4199.487179487181,0.0,2047.0,2048.0,0.0,0.0,4.0,4.0,4.0,4.0,0.0,4.0,4.0,4.0,4.0,0.0,4.0,1.0,4.0,4.0,4.0,4.0
43.0,0.0,4205.128205128207,4172.8205128205145,4193.333333333335,4236.410256410258,4185.641025641027,4325.641025641027,4179.487179487181,4146.153846153848,4195.897435897437,4185.641025641027,4181.538461538463,4213.846153846155,4174.3589743589755,4196.923076923078,0.0,2047.0,2048.0,0.0,0.0,4.0,4.0,4.0,4.0,0.0,4.0,4.0,4.0,4.0,0.0,4.0,1.0,4.0,4.0,4.0,4.0
44.0,0.0,4198.97435897436,4162.564102564104,4194.871794871797,4234.3589743589755,4188.20512820513,4311.282051282053,4183.076923076925,4147.179487179489,4201.0256410256425,4187.179487179489,4184.615384615386,4217.94871794872,4171.794871794873,4197.94871794872,0.0,2047.0,2048.0,0.0,0.0,4.0,4.0,4.0,4.0,0.0,4.0,4.0,4.0,4.0,0.0,4.0,1.0,4.0,4.0,4.0,4.0
45.0,0.0,4199.487179487181,4158.97435897436,4189.23076923077,4237.94871794872,4186.666666666668,4306.666666666668,4191.794871794873,4167.692307692309,4210.256410256412,4185.641025641027,4192.307692307694,4209.743589743592,4181.538461538463,4201.0256410256425,0.0,2047.0,2048.0,0.0,0.0,4.0,4.0,4.0,4.0,0.0,4.0,4.0,4.0,4.0,0.0,4.0,1.0,4.0,4.0,4.0,4.0
46.0,0.0,4206.666666666668,4160.000000000002,4196.923076923078,4236.923076923078,4190.769230769232,4310.769230769232,4186.153846153848,4166.153846153848,4211.282051282053,4185.641025641027,4195.897435897437,4219.487179487181,4187.692307692309,4207.179487179489,0.0,2047.0,2048.0,0.0,0.0,4.0,4.0,4.0,4.0,0.0,4.0,4.0,4.0,4.0,0.0,4.0,1.0,4.0,4.0,4.0,4.0
47.0,0.0,4209.23076923077,4167.179487179489,4196.923076923078,4234.3589743589755,4188.71794871795,4331.282051282053,4181.0256410256425,4155.897435897437,4204.615384615386,4184.102564102565,4194.871794871797,4209.743589743592,4188.71794871795,4207.179487179489,0.0,2047.0,2048.0,0.0,0.0,4.0,4.0,4.0,4.0,0.0,4.0,4.0,4.0,4.0,0.0,4.0,1.0,4.0,4.0,4.0,4.0
48.0,0.0,4210.769230769232,4170.769230769232,4197.94871794872,4236.410256410258,4190.256410256412,4357.94871794872,4194.871794871797,4164.615384615386,4206.666666666668,4184.615384615386,4197.435897435899,4213.333333333335,4191.282051282053,4202.564102564104,0.0,2047.0,2048.0,0.0,0.0,4.0,4.0,4.0,4.0,0.0,4.0,4.0,4.0,4.0,0.0,4.0,1.0,4.0,4.0,4.0,4.0
49.0,0.0,4203.076923076925,4155.384615384617,4194.3589743589755,4231.282051282053,4190.256410256412,4367.692307692309,4206.666666666668,4172.8205128205145,4215.384615384617,4186.666666666668,4194.3589743589755,4218.46153846154,4191.794871794873,4194.3589743589755,0.0,2047.0,2048.0,0.0,0.0,4.0,4.0,4.0,4.0,0.0,4.0,4.0,4.0,4.0,0.0,4.0,1.0,4.0,4.0,4.0,4.0
50.0,0.0,4189.23076923077,4138.97435897436,4176.923076923078,4214.871794871797,4183.076923076925,4345.128205128207,4189.23076923077,4159.487179487181,4207.692307692309,4184.102564102565,4179.487179487181,4206.666666666668,4183.076923076925,4182.564102564104,0.0,2047.0,2048.0,0.0,0.0,4.0,4.0,4.0,4.0,0.0,4.0,4.0,4.0,4.0,0.0,4.0,1.0,4.0,4.0,4.0,4.0
51.0,0.0,4189.23076923077,4143.076923076925,4181.538461538463,4207.692307692309,4188.20512820513,4312.307692307694,4165.128205128207,4145.128205128207,4199.487179487181,4186.153846153848,4175.384615384617,4216.410256410258,4175.897435897437,4180.000000000002,0.0,2047.0,2048.0,0.0,0.0,4.0,4.0,4.0,4.0,0.0,4.0,4.0,4.0,4.0,0.0,4.0,1.0,4.0,4.0,4.0,4.0
52.0,0.0,4187.692307692309,4145.128205128207,4181.538461538463,4211.282051282053,4187.179487179489,4303.589743589745,4168.20512820513,4152.8205128205145,4207.179487179489,4193.846153846155,4183.589743589745,4207.692307692309,4177.94871794872,4184.102564102565,0.0,2047.0,2048.0,0.0,0.0,4.0,4.0,4.0,4.0,0.0,4.0,4.0,4.0,4.0,0.0,4.0,1.0,4.0,4.0,4.0,4.0
53.0,0.0,4178.97435897436,4132.8205128205145,4173.846153846155,4210.769230769232,4185.641025641027,4311.282051282053,4183.076923076925,4155.384615384617,4204.102564102565,4190.769230769232,4176.410256410258,4205.641025641027,4169.743589743592,4175.384615384617,0.0,2047.0,2048.0,0.0,0.0,4.0,4.0,4.0,4.0,0.0,4.0,4.0,4.0,4.0,0.0,4.0,1.0,4.0,4.0,4.0,4.0
54.0,0.0,4167.692307692309,4126.153846153848,4173.333333333335,4206.666666666668,4189.23076923077,4313.846153846155,4190.256410256412,4149.23076923077,4195.384615384617,4183.076923076925,4165.641025641027,4211.794871794873,4152.8205128205145,4164.102564102565,0.0,2047.0,2048.0,0.0,0.0,4.0,4.0,4.0,4.0,0.0,4.0,4.0,4.0,4.0,0.0,4.0,1.0,4.0,4.0,4.0,4.0
55.0,0.0,4171.282051282053,4135.384615384617,4173.846153846155,4211.282051282053,4185.641025641027,4308.20512820513,4190.769230769232,4153.333333333335,4206.153846153848,4185.128205128207,4177.94871794872,4205.128205128207,4170.769230769232,4177.435897435899,0.0,2047.0,2048.0,0.0,0.0,4.0,4.0,4.0,4.0,0.0,4.0,4.0,4.0,4.0,0.0,4.0,1.0,4.0,4.0,4.0,4.0
56.0,0.0,4189.23076923077,4141.0256410256425,4186.153846153848,4216.410256410258,4187.692307692309,4303.589743589745,4184.102564102565,4158.46153846154,4217.94871794872,4188.71794871795,4192.8205128205145,4217.435897435899,4197.435897435899,4194.871794871797,0.0,2047.0,2048.0,0.0,0.0,4.0,4.0,4.0,4.0,0.0,4.0,4.0,4.0,4.0,0.0,4.0,1.0,4.0,4.0,4.0,4.0
57.0,0.0,4182.564102564104,4132.307692307694,4178.46153846154,4210.769230769232,4184.615384615386,4310.256410256412,4184.102564102565,4157.435897435899,4216.923076923078,4185.128205128207,4183.076923076925,4209.23076923077,4185.128205128207,4178.97435897436,0.0,2047.0,2048.0,0.0,0.0,4.0,4.0,4.0,4.0,0.0,4.0,4.0,4.0,4.0,0.0,4.0,1.0,4.0,4.0,4.0,4.0
58.0,0.0,4178.46153846154,4134.871794871797,4173.846153846155,4209.743589743592,4183.076923076925,4322.564102564104,4196.410256410258,4163.076923076925,4216.410256410258,4184.615384615386,4180.512820512822,4208.71794871795,4178.97435897436,4173.846153846155,0.0,2047.0,2048.0,0.0,0.0,4.0,4.0,4.0,4.0,0.0,4.0,4.0,4.0,4.0,0.0,4.0,1.0,4.0,4.0,4.0,4.0
59.0,0.0,4193.333333333335,4145.641025641027,4187.179487179489,4215.897435897437,4189.743589743592,4325.641025641027,4198.46153846154,4172.8205128205145,4217.94871794872,4187.179487179489,4198.97435897436,4221.0256410256425,4196.410256410258,4192.8205128205145,0.0,2047.0,2048.0,0.0,0.0,4.0,4.0,4.0,4.0,0.0,4.0,4.0,4.0,4.0,0.0,4.0,1.0,4.0,4.0,4.0,4.0
60.0,0.0,4195.384615384617,4146.153846153848,4183.076923076925,4217.435897435899,4187.692307692309,4324.102564102565,4193.846153846155,4173.333333333335,4217.435897435899,4185.128205128207,4201.538461538463,4210.769230769232,4194.3589743589755,4196.410256410258,0.0,2047.0,2048.0,0.0,0.0,4.0,4.0,4.0,4.0,0.0,4.0,4.0,4.0,4.0,0.0,4.0,1.0,4.0,4.0,4.0,4.0
61.0,0.0,4187.692307692309,4140.000000000002,4183.589743589745,4216.923076923078,4189.743589743592,4327.179487179489,4193.333333333335,4163.589743589745,4212.8205128205145,4185.128205128207,4189.23076923077,4216.410256410258,4181.538461538463,4185.128205128207,0.0,2047.0,2048.0,0.0,0.0,4.0,4.0,4.0,4.0,0.0,4.0,4.0,4.0,4.0,0.0,4.0,1.0,4.0,4.0,4.0,4.0
62.0,0.0,4186.153846153848,4132.307692307694,4183.076923076925,4216.410256410258,4189.23076923077,4324.102564102565,4191.282051282053,4155.897435897437,4204.615384615386,4188.20512820513,4181.538461538463,4211.794871794873,4174.3589743589755,4180.000000000002,0.0,2047.0,2048.0,0.0,0.0,4.0,4.0,4.0,4.0,0.0,4.0,4.0,4.0,4.0,0.0,4.0,1.0,4.0,4.0,4.0,4.0
63.0,0.0,4193.333333333335,4134.3589743589755,4185.641025641027,4222.564102564104,4187.692307692309,4311.282051282053,4185.641025641027,4160.000000000002,4205.128205128207,4188.20512820513,4181.0256410256425,4209.743589743592,4174.3589743589755,4185.641025641027,0.0,2047.0,2048.0,0.0,0.0,4.0,4.0,4.0,4.0,0.0,4.0,4.0,4.0,4.0,0.0,4.0,1.0,4.0,4.0,4.0,4.0
64.0,0.0,4199.487179487181,4139.487179487181,4196.923076923078,4232.307692307694,4189.743589743592,4292.307692307694,4185.641025641027,4168.20512820513,4215.384615384617,4185.128205128207,4192.8205128205145,4219.487179487181,4187.692307692309,4196.410256410258,649.0,2047.0,2048.0,0.0,0.0,4.0,4.0,4.0,4.0,0.0,4.0,4.0,4.0,4.0,0.0,4.0,1.0,4.0,4.0,4.0,4.0
65.0,0.0,4191.282051282053,4135.897435897437,4188.71794871795,4231.794871794873,4188.20512820513,4268.71794871795,4186.666666666668,4168.71794871795,4215.897435897437,4184.615384615386,4200.000000000002,4209.743589743592,4196.410256410258,4198.97435897436,824.0,2047.0,2048.0,0.0,0.0,4.0,4.0,4.0,4.0,0.0,4.0,4.0,4.0,4.0,0.0,4.0,1.0,4.0,4.0,4.0,4.0
66.0,0.0,4190.256410256412,4142.051282051283,4193.333333333335,4236.410256410258,4191.282051282053,4264.615384615386,4183.076923076925,4168.71794871795,4210.256410256412,4185.641025641027,4190.256410256412,4217.94871794872,4186.153846153848,4197.94871794872,798.0,2047.0,2048.0,0.0,0.0,4.0,4.0,4.0,4.0,0.0,4.0,4.0,4.0,4.0,0.0,4.0,1.0,4.0,4.0,4.0,4.0
67.0,0.0,4200.000000000002,4160.512820512822,4202.051282051283,4253.846153846155,4186.666666666668,4294.3589743589755,4188.71794871795,4171.282051282053,4214.3589743589755,4185.128205128207,4189.23076923077,4215.897435897437,4178.97435897436,4198.97435897436,762.0,2047.0,2048.0,0.0,0.0,4.0,4.0,4.0,4.0,0.0,4.0,4.0,4.0,4.0,0.0,4.0,1.0,4.0,4.0,4.0,4.0
68.0,0.0,4203.589743589745,4165.641025641027,4194.871794871797,4257.94871794872,4183.076923076925,4323.076923076925,4195.897435897437,4169.23076923077,4219.487179487181,4185.641025641027,4193.333333333335,4211.794871794873,4174.3589743589755,4196.923076923078,0.0,2047.0,2048.0,0.0,0.0,4.0,4.0,4.0,4.0,0.0,4.0,4.0,4.0,4.0,0.0,4.0,1.0,4.0,4.0,4.0,4.0
69.0,0.0,4203.589743589745,4158.46153846154,4191.794871794873,4247.179487179489,4188.20512820513,4329.23076923077,4194.3589743589755,4167.179487179489,4217.94871794872,4185.641025641027,4189.23076923077,4219.487179487181,4175.384615384617,4196.410256410258,770.0,2047.0,2048.0,0.0,0.0,4.0,4.0,4.0,4.0,0.0,4.0,4.0,4.0,4.0,0.0,4.0,1.0,4.0,4.0,4.0,4.0
70.0,0.0,4203.589743589745,4168.20512820513,4191.282051282053,4248.71794871795,4183.076923076925,4327.692307692309,4198.97435897436,4172.8205128205145,4216.923076923078,4185.128205128207,4190.256410256412,4208.20512820513,4188.20512820513,4203.589743589745,801.0,2047.0,2048.0,0.0,0.0,4.0,4.0,4.0,4.0,0.0,4.0,4.0,4.0,4.0,0.0,4.0,1.0,4.0,4.0,4.0,4.0
71.0,0.0,4203.589743589745,4176.923076923078,4195.384615384617,4256.410256410258,4183.589743589745,4322.564102564104,4197.94871794872,4172.307692307694,4215.384615384617,4186.666666666668,4192.307692307694,4214.871794871797,4180.512820512822,4199.487179487181,790.0,2047.0,2048.0,0.0,0.0,4.0,4.0,4.0,4.0,0.0,4.0,4.0,4.0,4.0,0.0,4.0,1.0,4.0,4.0,4.0,4.0
72.0,0.0,4199.487179487181,4163.076923076925,4188.71794871795,4247.692307692309,4185.641025641027,4315.384615384617,4187.692307692309,4168.71794871795,4217.94871794872,4186.153846153848,4187.692307692309,4212.307692307694,4167.692307692309,4185.128205128207,622.0,2047.0,2048.0,0.0,0.0,4.0,4.0,4.0,4.0,0.0,4.0,4.0,4.0,4.0,0.0,4.0,1.0,4.0,4.0,4.0,4.0
73.0,0.0,4198.46153846154,4167.692307692309,4184.615384615386,4245.128205128207,4186.153846153848,4324.102564102565,4191.282051282053,4168.71794871795,4214.871794871797,4185.128205128207,4179.487179487181,4205.128205128207,4170.769230769232,4185.128205128207,0.0,2047.0,2048.0,0.0,0.0,4.0,4.0,4.0,4.0,0.0,4.0,4.0,4.0,4.0,0.0,4.0,1.0,4.0,4.0,4.0,4.0
74.0,0.0,4200.512820512822,4181.538461538463,4193.846153846155,4251.282051282053,4190.769230769232,4332.307692307694,4200.000000000002,4164.615384615386,4205.641025641027,4187.179487179489,4168.71794871795,4215.897435897437,4163.589743589745,4187.692307692309,854.0,2047.0,2048.0,0.0,0.0,4.0,4.0,4.0,4.0,0.0,4.0,4.0,4.0,4.0,0.0,4.0,1.0,4.0,4.0,4.0,4.0
75.0,0.0,4184.102564102565,4155.897435897437,4176.410256410258,4237.94871794872,4184.102564102565,4309.743589743592,4203.589743589745,4175.897435897437,4216.923076923078,4187.179487179489,4166.153846153848,4203.589743589745,4159.487179487181,4177.94871794872,837.0,2047.0,2048.0,0.0,0.0,4.0,4.0,4.0,4.0,0.0,4.0,4.0,4.0,4.0,0.0,4.0,1.0,4.0,4.0,4.0,4.0
76.0,0.0,4171.794871794873,4134.871794871797,4173.333333333335,4227.179487179489,4184.102564102565,4281.0256410256425,4203.589743589745,4189.23076923077,4229.23076923077,4185.641025641027,4178.97435897436,4208.20512820513,4180.000000000002,4180.512820512822,822.0,2047.0,2048.0,0.0,0.0,4.0,4.0,4.0,4.0,0.0,4.0,4.0,4.0,4.0,0.0,4.0,1.0,4.0,4.0,4.0,4.0
77.0,0.0,4183.076923076925,4157.94871794872,4187.692307692309,4240.000000000002,4187.179487179489,4280.512820512822,4192.8205128205145,4178.46153846154,4220.000000000002,4185.641025641027,4191.282051282053,4213.333333333335,4194.3589743589755,4195.384615384617,58.0,2047.0,2048.0,0.0,0.0,4.0,4.0,4.0,4.0,0.0,4.0,4.0,4.0,4.0,0.0,4.0,1.0,4.0,4.0,4.0,4.0
78.0,0.0,4183.076923076925,4169.743589743592,4174.871794871797,4236.410256410258,4185.128205128207,4302.051282051283,4181.0256410256425,4169.23076923077,4214.871794871797,4186.666666666668,4183.076923076925,4205.641025641027,4175.384615384617,4185.128205128207,854.0,2047.0,2048.0,0.0,0.0,4.0,4.0,4.0,4.0,0.0,4.0,4.0,4.0,4.0,0.0,4.0,1.0,4.0,4.0,4.0,4.0
79.0,0.0,4172.307692307694,4156.923076923078,4167.692307692309,4214.3589743589755,4190.256410256412,4328.20512820513,4184.615384615386,4169.23076923077,4216.923076923078,4185.128205128207,4171.282051282053,4214.871794871797,4162.051282051283,4164.102564102565,837.0,2047.0,2048.0,0.0,0.0,4.0,4.0,4.0,4.0,0.0,4.0,4.0,4.0,4.0,0.0,4.0,1.0,4.0,4.0,4.0,4.0
80.0,0.0,4179.487179487181,4160.000000000002,4172.307692307694,4216.410256410258,4186.153846153848,4335.897435897437,4186.666666666668,4160.000000000002,4212.8205128205145,4184.615384615386,4179.487179487181,4206.666666666668,4180.512820512822,4164.615384615386,822.0,2047.0,2048.0,0.0,0.0,4.0,4.0,4.0,4.0,0.0,4.0,4.0,4.0,4.0,0.0,4.0,1.0,4.0,4.0,4.0,4.0
81.0,0.0,4188.20512820513,4165.128205128207,4172.307692307694,4220.512820512822,4183.589743589745,4323.589743589745,4180.000000000002,4152.307692307694,4210.769230769232,4186.153846153848,4186.666666666668,4208.71794871795,4183.589743589745,4167.692307692309,58.0,2047.0,2048.0,0.0,0.0,4.0,4.0,4.0,4.0,0.0,4.0,4.0,4.0,4.0,0.0,4.0,1.0,4.0,4.0,4.0,4.0
82.0,0.0,4173.846153846155,4151.794871794873,4162.051282051283,4202.564102564104,4185.641025641027,4314.3589743589755,4182.564102564104,4163.076923076925,4218.46153846154,4186.153846153848,4182.564102564104,4210.256410256412,4168.71794871795,4161.0256410256425,854.0,2047.0,2048.0,0.0,0.0,4.0,4.0,4.0,4.0,0.0,4.0,4.0,4.0,4.0,0.0,4.0,1.0,4.0,4.0,4.0,4.0
83.0,0.0,4164.615384615386,4147.692307692309,4155.384615384617,4196.410256410258,4185.641025641027,4315.897435897437,4188.20512820513,4168.20512820513,4219.487179487181,4185.641025641027,4179.487179487181,4202.564102564104,4167.179487179489,4157.435897435899,837.0,2047.0,2048.0,0.0,0.0,4.0,4.0,4.0,4.0,0.0,4.0,4.0,4.0,4.0,0.0,4.0,1.0,4.0,4.0,4.0,4.0
84.0,0.0,4171.794871794873,4155.897435897437,4167.692307692309,4203.589743589745,4188.71794871795,4319.487179487181,4187.179487179489,4167.692307692309,4215.897435897437,4186.666666666668,4175.384615384617,4215.384615384617,4170.256410256412,4157.94871794872,822.0,2047.0,2048.0,0.0,0.0,4.0,4.0,4.0,4.0,0.0,4.0,4.0,4.0,4.0,0.0,4.0,1.0,4.0,4.0,4.0,4.0
85.0,0.0,4170.769230769232,4152.307692307694,4163.589743589745,4199.487179487181,4182.051282051283,4305.128205128207,4185.128205128207,4169.743589743592,4216.923076923078,4186.153846153848,4175.897435897437,4206.666666666668,4173.333333333335,4161.0256410256425,58.0,2047.0,2048.0,0.0,0.0,4.0,4.0,4.0,4.0,0.0,4.0,4.0,4.0,4.0,0.0,4.0,1.0,4.0,4.0,4.0,4.0
86.0,0.0,4171.794871794873,4146.153846153848,4163.589743589745,4198.46153846154,4181.0256410256425,4275.897435897437,4182.564102564104,4166.666666666668,4212.8205128205145,4185.641025641027,4187.179487179489,4206.666666666668,4190.769230769232,4171.794871794873,854.0,2047.0,2048.0,0.0,0.0,4.0,4.0,4.0,4.0,0.0,4.0,4.0,4.0,4.0,0.0,4.0,1.0,4.0,4.0,4.0,4.0
87.0,0.0,4172.307692307694,4147.179487179489,4172.307692307694,4202.564102564104,4187.179487179489,4256.410256410258,4179.487179487181,4168.71794871795,4207.179487179489,4186.666666666668,4192.8205128205145,4212.8205128205145,4201.0256410256425,4177.435897435899,837.0,2047.0,2048.0,0.0,0.0,4.0,4.0,4.0,4.0,0.0,4.0,4.0,4.0,4.0,0.0,4.0,1.0,4.0,4.0,4.0,4.0
88.0,0.0,4163.076923076925,4146.153846153848,4165.128205128207,4193.846153846155,4187.692307692309,4260.000000000002,4177.94871794872,4171.794871794873,4207.692307692309,4186.153846153848,4181.0256410256425,4201.538461538463,4185.641025641027,4170.256410256412,822.0,2047.0,2048.0,0.0,0.0,4.0,4.0,4.0,4.0,0.0,4.0,4.0,4.0,4.0,0.0,4.0,1.0,4.0,4.0,4.0,4.0
89.0,0.0,4168.71794871795,4146.666666666668,4171.794871794873,4193.333333333335,4189.743589743592,4273.333333333335,4181.0256410256425,4170.769230769232,4215.384615384617,4185.641025641027,4176.923076923078,4214.3589743589755,4179.487179487181,4172.8205128205145,58.0,2047.0,2048.0,0.0,0.0,4.0,4.0,4.0,4.0,0.0,4.0,4.0,4.0,4.0,0.0,4.0,1.0,4.0,4.0,4.0,4.0
90.0,0.0,4178.97435897436,4149.23076923077,4174.3589743589755,4203.589743589745,4185.641025641027,4282.564102564104,4183.589743589745,4168.71794871795,4219.487179487181,4185.641025641027,4182.051282051283,4211.282051282053,4190.769230769232,4181.0256410256425,854.0,2047.0,2048.0,0.0,0.0,4.0,4.0,4.0,4.0,0.0,4.0,4.0,4.0,4.0,0.0,4.0,1.0,4.0,4.0,4.0,4.0
91.0,0.0,4181.0256410256425,4152.8205128205145,4176.923076923078,4204.102564102565,4187.179487179489,4293.846153846155,4184.102564102565,4172.307692307694,4216.410256410258,4186.153846153848,4182.051282051283,4206.666666666668,4189.743589743592,4183.589743589745,837.0,2047.0,2048.0,0.0,0.0,4.0,4.0,4.0,4.0,0.0,4.0,4.0,4.0,4.0,0.0,4.0,1.0,4.0,4.0,4.0,4.0
92.0,0.0,4187.179487179489,4156.923076923078,4189.23076923077,4208.71794871795,4190.256410256412,4294.871794871797,4186.153846153848,4185.128205128207,4221.0256410256425,4186.153846153848,4187.692307692309,4212.8205128205145,4189.23076923077,4192.307692307694,822.0,2047.0,2048.0,0.0,0.0,4.0,4.0,4.0,4.0,0.0,4.0,4.0,4.0,4.0,0.0,4.0,1.0,4.0,4.0,4.0,4.0
93.0,0.0,4190.256410256412,4154.871794871797,4185.641025641027,4216.923076923078,4185.128205128207,4286.153846153848,4190.769230769232,4190.256410256412,4221.538461538463,4186.666666666668,4186.666666666668,4208.20512820513,4184.615384615386,4194.3589743589755,58.0,2047.0,2048.0,0.0,0.0,4.0,4.0,4.0,4.0,0.0,4.0,4.0,4.0,4.0,0.0,4.0,1.0,4.0,4.0,4.0,4.0
94.0,0.0,4184.615384615386,4145.128205128207,4185.641025641027,4211.282051282053,4187.692307692309,4293.333333333335,4186.666666666668,4172.307692307694,4207.692307692309,4185.641025641027,4174.3589743589755,4218.97435897436,4168.71794871795,4185.641025641027,854.0,2047.0,2048.0,0.0,0.0,4.0,4.0,4.0,4.0,0.0,4.0,4.0,4.0,4.0,0.0,4.0,1.0,4.0,4.0,4.0,4.0
95.0,0.0,4167.692307692309,4127.692307692309,4174.3589743589755,4197.435897435899,4185.128205128207,4223.589743589745,4174.3589743589755,4153.333333333335,4195.897435897437,4185.128205128207,4164.615384615386,4207.692307692309,4165.128205128207,4176.410256410258,837.0,2047.0,2048.0,0.0,0.0,4.0,4.0,4.0,4.0,0.0,4.0,4.0,4.0,4.0,0.0,4.0,1.0,4.0,4.0,4.0,4.0
96.0,0.0,4162.564102564104,4125.128205128207,4167.179487179489,4198.97435897436,4184.615384615386,4028.2051282051298,4173.333333333335,4160.512820512822,4200.000000000002,4185.641025641027,4168.20512820513,4204.615384615386,4169.23076923077,4176.923076923078,822.0,2047.0,2048.0,0.0,0.0,4.0,4.0,4.0,4.0,0.0,4.0,4.0,4.0,4.0,0.0,4.0,1.0,4.0,4.0,4.0,4.0
97.0,0.0,4169.743589743592,4138.46153846154,4177.94871794872,4206.666666666668,4190.256410256412,3911.7948717948734,4178.97435897436,4172.8205128205145,4203.589743589745,4186.153846153848,4172.307692307694,4212.8205128205145,4158.46153846154,4177.435897435899,58.0,2047.0,2048.0,0.0,0.0,4.0,4.0,4.0,4.0,0.0,4.0,4.0,4.0,4.0,0.0,4.0,1.0,4.0,4.0,4.0,4.0
98.0,0.0,4162.564102564104,4140.000000000002,4173.333333333335,4203.076923076925,4188.20512820513,3958.46153846154,4177.94871794872,4168.20512820513,4197.94871794872,4185.641025641027,4162.051282051283,4200.000000000002,4146.666666666668,4170.256410256412,854.0,2047.0,2048.0,0.0,0.0,4.0,4.0,4.0,4.0,0.0,4.0,4.0,4.0,4.0,0.0,4.0,1.0,4.0,4.0,4.0,4.0
99.0,0.0,4160.512820512822,4137.435897435899,4174.3589743589755,4201.0256410256425,4190.769230769232,4008.71794871795,4181.538461538463,4167.692307692309,4201.0256410256425,4185.641025641027,4157.94871794872,4210.256410256412,4154.3589743589755,4170.769230769232,837.0,2047.0,2048.0,0.0,0.0,4.0,4.0,4.0,4.0,0.0,4.0,4.0,4.0,4.0,0.0,4.0,1.0,4.0,4.0,4.0,4.0
100.0,0.0,4166.666666666668,4141.538461538463,4172.307692307694,4206.153846153848,4189.743589743592,4041.0256410256425,4182.051282051283,4171.794871794873,4202.051282051283,4186.666666666668,4167.179487179489,4210.256410256412,4160.000000000002,4174.3589743589755,822.0,2047.0,2048.0,0.0,0.0,4.0,4.0,4.0,4.0,0.0,4.0,4.0,4.0,4.0,0.0,4.0,1.0,4.0,4.0,4.0,4.0
101.0,0.0,4169.23076923077,4141.0256410256425,4168.71794871795,4205.641025641027,4185.128205128207,4114.3589743589755,4169.23076923077,4166.666666666668,4194.3589743589755,4186.666666666668,4168.20512820513,4206.666666666668,4151.282051282053,4172.307692307694,58.0,2047.0,2048.0,0.0,0.0,4.0,4.0,4.0,4.0,0.0,4.0,4.0,4.0,4.0,0.0,4.0,1.0,4.0,4.0,4.0,4.0
102.0,0.0,4171.282051282053,4136.410256410258,4177.94871794872,4202.564102564104,4186.153846153848,4151.282051282053,4171.794871794873,4174.3589743589755,4205.641025641027,4185.641025641027,4168.71794871795,4213.846153846155,4155.384615384617,4174.3589743589755,854.0,2047.0,2048.0,0.0,0.0,4.0,4.0,4.0,4.0,0.0,4.0,4.0,4.0,4.0,0.0,4.0,1.0,4.0,4.0,4.0,4.0
103.0,0.0,4176.923076923078,4145.641025641027,4177.94871794872,4207.179487179489,4185.128205128207,4140.000000000002,4192.307692307694,4194.3589743589755,4218.46153846154,4184.615384615386,4175.897435897437,4203.589743589745,4171.282051282053,4185.128205128207,837.0,2047.0,2048.0,0.0,0.0,4.0,4.0,4.0,4.0,0.0,4.0,4.0,4.0,4.0,0.0,4.0,1.0,4.0,4.0,4.0,4.0
104.0,0.0,4183.589743589745,4153.846153846155,4180.000000000002,4207.692307692309,4189.743589743592,4146.666666666668,4189.743589743592,4186.153846153848,4206.666666666668,4185.128205128207,4171.282051282053,4214.3589743589755,4163.076923076925,4185.128205128207,822.0,2047.0,2048.0,0.0,0.0,4.0,4.0,4.0,4.0,0.0,4.0,4.0,4.0,4.0,0.0,4.0,1.0,4.0,4.0,4.0,4.0
105.0,0.0,4178.97435897436,4144.615384615386,4175.384615384617,4204.615384615386,4186.153846153848,4148.20512820513,4183.076923076925,4168.20512820513,4203.589743589745,4186.153846153848,4162.564102564104,4212.307692307694,4150.256410256412,4176.923076923078,58.0,2047.0,2048.0,0.0,0.0,4.0,4.0,4.0,4.0,0.0,4.0,4.0,4.0,4.0,0.0,4.0,1.0,4.0,4.0,4.0,4.0
106.0,0.0,4185.641025641027,4151.794871794873,4181.0256410256425,4217.94871794872,4181.0256410256425,4129.23076923077,4191.282051282053,4174.3589743589755,4212.8205128205145,4186.153846153848,4173.333333333335,4207.692307692309,4167.692307692309,4188.71794871795,854.0,2047.0,2048.0,0.0,0.0,4.0,4.0,4.0,4.0,0.0,4.0,4.0,4.0,4.0,0.0,4.0,1.0,4.0,4.0,4.0,4.0
107.0,0.0,4192.8205128205145,4161.538461538463,4193.333333333335,4221.538461538463,4187.692307692309,4104.615384615386,4184.615384615386,4176.410256410258,4208.20512820513,4186.666666666668,4177.94871794872,4217.435897435899,4174.3589743589755,4194.3589743589755,837.0,2047.0,2048.0,0.0,0.0,4.0,4.0,4.0,4.0,0.0,4.0,4.0,4.0,4.0,0.0,4.0,1.0,4.0,4.0,4.0,4.0
108.0,0.0,4172.8205128205145,4142.564102564104,4171.282051282053,4198.97435897436,4185.641025641027,4071.7948717948734,4174.871794871797,4167.179487179489,4211.282051282053,4185.641025641027,4168.20512820513,4204.102564102565,4160.000000000002,4177.94871794872,822.0,2047.0,2048.0,0.0,0.0,4.0,4.0,4.0,4.0,0.0,4.0,4.0,4.0,4.0,0.0,4.0,1.0,4.0,4.0,4.0,4.0
109.0,0.0,4166.153846153848,4137.94871794872,4166.666666666668,4197.435897435899,4187.179487179489,4040.512820512822,4178.97435897436,4168.71794871795,4215.384615384617,4185.641025641027,4167.692307692309,4211.794871794873,4166.666666666668,4177.94871794872,58.0,2047.0,2048.0,0.0,0.0,4.0,4.0,4.0,4.0,0.0,4.0,4.0,4.0,4.0,0.0,4.0,1.0,4.0,4.0,4.0,4.0
110.0,0.0,4175.897435897437,4151.282051282053,4176.410256410258,4208.20512820513,4187.179487179489,4022.564102564104,4175.384615384617,4168.71794871795,4202.051282051283,4186.153846153848,4169.23076923077,4212.8205128205145,4177.94871794872,4185.641025641027,854.0,2047.0,2048.0,0.0,0.0,4.0,4.0,4.0,4.0,0.0,4.0,4.0,4.0,4.0,0.0,4.0,1.0,4.0,4.0,4.0,4.0
111.0,0.0,4164.615384615386,4137.94871794872,4162.051282051283,4189.23076923077,4181.538461538463,4006.1538461538476,4167.692307692309,4167.179487179489,4206.153846153848,4185.128205128207,4165.641025641027,4203.589743589745,4163.076923076925,4173.846153846155,837.0,2047.0,2048.0,0.0,0.0,4.0,4.0,4.0,4.0,0.0,4.0,4.0,4.0,4.0,0.0,4.0,1.0,4.0,4.0,4.0,4.0
112.0,0.0,4158.46153846154,4126.153846153848,4161.0256410256425,4177.435897435899,4183.589743589745,4030.7692307692323,4170.256410256412,4173.846153846155,4219.487179487181,4187.179487179489,4171.282051282053,4213.846153846155,4155.384615384617,4167.692307692309,822.0,2047.0,2048.0,0.0,0.0,4.0,4.0,4.0,4.0,0.0,4.0,4.0,4.0,4.0,0.0,4.0,1.0,4.0,4.0,4.0,4.0
113.0,0.0,4170.256410256412,4145.128205128207,4163.589743589745,4191.794871794873,4183.589743589745,4154.871794871797,4170.256410256412,4172.8205128205145,4206.153846153848,4185.128205128207,4175.897435897437,4204.615384615386,4161.0256410256425,4170.256410256412,58.0,2047.0,2048.0,0.0,0.0,4.0,4.0,4.0,4.0,0.0,4.0,4.0,4.0,4.0,0.0,4.0,1.0,4.0,4.0,4.0,4.0
114.0,0.0,4169.743589743592,4148.71794871795,4162.564102564104,4187.692307692309,4189.743589743592,4311.282051282053,4170.256410256412,4166.666666666668,4196.410256410258,4184.102564102565,4158.46153846154,4207.692307692309,4142.051282051283,4155.897435897437,854.0,2047.0,2048.0,0.0,0.0,4.0,4.0,4.0,4.0,0.0,4.0,4.0,4.0,4.0,0.0,4.0,1.0,4.0,4.0,4.0,4.0
115.0,0.0,4160.000000000002,4127.179487179489,4160.512820512822,4174.3589743589755,4190.256410256412,4351.282051282053,4176.923076923078,4170.256410256412,4210.769230769232,4190.769230769232,4159.487179487181,4208.20512820513,4136.410256410258,4151.282051282053,837.0,2047.0,2048.0,0.0,0.0,4.0,4.0,4.0,4.0,0.0,4.0,4.0,4.0,4.0,0.0,4.0,1.0,4.0,4.0,4.0,4.0
116.0,0.0,4162.051282051283,4124.615384615386,4157.94871794872,4177.94871794872,4182.051282051283,4250.256410256412,4171.794871794873,4176.923076923078,4222.051282051283,4193.846153846155,4182.051282051283,4202.564102564104,4166.666666666668,4168.20512820513,822.0,2047.0,2048.0,0.0,0.0,4.0,4.0,4.0,4.0,0.0,4.0,4.0,4.0,4.0,0.0,4.0,1.0,4.0,4.0,4.0,4.0
117.0,0.0,4159.487179487181,4126.153846153848,4157.94871794872,4174.871794871797,4185.128205128207,4141.538461538463,4165.641025641027,4170.256410256412,4216.923076923078,4187.692307692309,4172.8205128205145,4214.871794871797,4172.8205128205145,4164.615384615386,58.0,2047.0,2048.0,0.0,0.0,4.0,4.0,4.0,4.0,0.0,4.0,4.0,4.0,4.0,0.0,4.0,1.0,4.0,4.0,4.0,4.0
118.0,0.0,4149.743589743592,4109.23076923077,4150.769230769232,4160.512820512822,4184.615384615386,4116.923076923078,4172.8205128205145,4164.102564102565,4215.384615384617,4183.589743589745,4160.000000000002,4204.615384615386,4169.743589743592,4156.923076923078,854.0,2047.0,2048.0,0.0,0.0,4.0,4.0,4.0,4.0,0.0,4.0,4.0,4.0,4.0,0.0,4.0,1.0,4.0,4.0,4.0,4.0
119.0,0.0,4152.8205128205145,4101.538461538463,4157.435897435899,4159.487179487181,4185.128205128207,4114.3589743589755,4172.307692307694,4164.615384615386,4217.94871794872,4186.666666666668,4171.282051282053,4205.641025641027,4183.589743589745,4166.153846153848,837.0,2047.0,2048.0,0.0,0.0,4.0,4.0,4.0,4.0,0.0,4.0,4.0,4.0,4.0,0.0,4.0,1.0,4.0,4.0,4.0,4.0
120.0,0.0,4151.794871794873,4105.128205128207,4160.000000000002,4164.102564102565,4186.153846153848,4063.589743589745,4165.128205128207,4167.179487179489,4216.410256410258,4187.179487179489,4174.871794871797,4209.743589743592,4184.102564102565,4167.692307692309,822.0,2047.0,2048.0,0.0,0.0,4.0,4.0,4.0,4.0,0.0,4.0,4.0,4.0,4.0,0.0,4.0,1.0,4.0,4.0,4.0,4.0
121.0,0.0,4156.923076923078,4110.256410256412,4158.46153846154,4165.641025641027,4184.102564102565,4020.512820512822,4175.384615384617,4182.051282051283,4223.076923076925,4185.128205128207,4187.179487179489,4206.666666666668,4200.000000000002,4177.435897435899,58.0,2047.0,2048.0,0.0,0.0,4.0,4.0,4.0,4.0,0.0,4.0,4.0,4.0,4.0,0.0,4.0,1.0,4.0,4.0,4.0,4.0
122.0,0.0,4186.666666666668,4120.512820512822,4181.0256410256425,4175.897435897437,4188.20512820513,4044.102564102566,4188.20512820513,4199.487179487181,4238.97435897436,4185.641025641027,4220.000000000002,4221.538461538463,4245.641025641027,4207.692307692309,854.0,2047.0,2048.0,0.0,0.0,4.0,4.0,4.0,4.0,0.0,4.0,4.0,4.0,4.0,0.0,4.0,1.0,4.0,4.0,4.0,4.0
123.0,0.0,4197.435897435899,4126.666666666668,4185.128205128207,4186.153846153848,4184.102564102565,4071.7948717948734,4187.692307692309,4205.641025641027,4250.256410256412,4185.641025641027,4227.179487179489,4211.794871794873,4247.692307692309,4218.46153846154,837.0,2047.0,2048.0,0.0,0.0,4.0,4.0,4.0,4.0,0.0,4.0,4.0,4.0,4.0,0.0,4.0,1.0,4.0,4.0,4.0,4.0
124.0,0.0,4181.0256410256425,4118.97435897436,4176.410256410258,4181.538461538463,4183.589743589745,4071.2820512820526,4189.743589743592,4198.46153846154,4244.615384615386,4186.153846153848,4208.20512820513,4210.256410256412,4215.384615384617,4203.589743589745,822.0,2047.0,2048.0,0.0,0.0,4.0,4.0,4.0,4.0,0.0,4.0,4.0,4.0,4.0,0.0,4.0,1.0,4.0,4.0,4.0,4.0
125.0,0.0,4172.8205128205145,4109.23076923077,4176.410256410258,4172.307692307694,4186.666666666668,4072.8205128205145,4193.333333333335,4187.692307692309,4234.3589743589755,4185.641025641027,4200.512820512822,4214.871794871797,4209.743589743592,4197.435897435899,58.0,2047.0,2048.0,0.0,0.0,4.0,4.0,4.0,4.0,0.0,4.0,4.0,4.0,4.0,0.0,4.0,1.0,4.0,4.0,4.0,4.0
126.0,0.0,4181.538461538463,4111.794871794873,4175.897435897437,4180.000000000002,4184.102564102565,4073.846153846155,4189.743589743592,4192.8205128205145,4237.94871794872,4185.641025641027,4208.20512820513,4208.20512820513,4219.487179487181,4207.692307692309,854.0,2047.0,2048.0,0.0,0.0,4.0,4.0,4.0,4.0,0.0,4.0,4.0,4.0,4.0,0.0,4.0,1.0,4.0,4.0,4.0,4.0
127.0,0.0,4191.282051282053,4120.512820512822,4184.102564102565,4192.307692307694,4187.692307692309,4065.641025641027,4185.128205128207,4201.0256410256425,4242.051282051283,4185.641025641027,4219.487179487181,4222.051282051283,4224.102564102565,4216.923076923078,837.0,2047.0,2048.0,0.0,0.0,4.0,4.0,4.0,4.0,0.0,4.0,4.0,4.0,4.0,0.0,4.0,1.0,4.0,4.0,4.0,4.0
128.0,0.0,4175.897435897437,4114.871794871797,4169.23076923077,4185.128205128207,4185.641025641027,4057.435897435899,4185.641025641027,4188.71794871795,4234.871794871797,4185.128205128207,4211.794871794873,4214.3589743589755,4221.538461538463,4205.641025641027,822.0,2047.0,2048.0,0.0,0.0,4.0,4.0,4.0,4.0,0.0,4.0,4.0,4.0,4.0,0.0,4.0,1.0,4.0,4.0,4.0,4.0
0.0,0.0,4162.051282051283,4105.128205128207,4157.94871794872,4180.000000000002,4185.641025641027,4049.230769230771,4184.615384615386,4171.282051282053,4224.102564102565,4186.153846153848,4194.3589743589755,4209.23076923077,4210.769230769232,4193.846153846155,652.0,2047.0,2048.0,0.0,0.0,4.0,4.0,4.0,4.0,0.0,4.0,4.0,4.0,4.0,0.0,4.0,1.0,4.0,4.0,4.0,4.0
1.0,0.0,4177.94871794872,4116.923076923078,4175.384615384617,4190.256410256412,4186.666666666668,4042.564102564104,4183.076923076925,4177.435897435899,4226.153846153848,4186.666666666668,4202.051282051283,4215.897435897437,4217.435897435899,4209.23076923077,824.0,2047.0,2048.0,0.0,0.0,4.0,4.0,4.0,4.0,0.0,4.0,4.0,4.0,4.0,0.0,4.0,1.0,4.0,4.0,4.0,4.0
2.0,0.0,4185.641025641027,4123.589743589745,4176.923076923078,4188.20512820513,4184.102564102565,4060.512820512822,4190.256410256412,4197.94871794872,4241.538461538463,4186.153846153848,4214.871794871797,4209.743589743592,4230.769230769232,4222.051282051283,798.0,2047.0,2048.0,0.0,0.0,4.0,4.0,4.0,4.0,0.0,4.0,4.0,4.0,4.0,0.0,4.0,1.0,4.0,4.0,4.0,4.0
3.0,0.0,4174.871794871797,4114.3589743589755,4174.3589743589755,4181.538461538463,4190.769230769232,4096.410256410258,4200.512820512822,4213.846153846155,4251.282051282053,4187.179487179489,4203.589743589745,4219.487179487181,4217.435897435899,4209.23076923077,762.0,2047.0,2048.0,0.0,0.0,4.0,4.0,4.0,4.0,0.0,4.0,4.0,4.0,4.0,0.0,4.0,1.0,4.0,4.0,4.0,4.0
4.0,0.0,4174.3589743589755,4121.538461538463,4172.307692307694,4188.71794871795,4187.179487179489,4115.384615384617,4196.923076923078,4207.179487179489,4238.97435897436,4188.20512820513,4192.8205128205145,4208.71794871795,4200.000000000002,4196.410256410258,0.0,2047.0,2048.0,0.0,0.0,4.0,4.0,4.0,4.0,0.0,4.0,4.0,4.0,4.0,0.0,4.0,1.0,4.0,4.0,4.0,4.0
5.0,0.0,4186.666666666668,4136.923076923078,4171.282051282053,4190.256410256412,4183.076923076925,4114.871794871797,4187.692307692309,4185.641025641027,4223.076923076925,4186.666666666668,4194.871794871797,4205.128205128207,4196.923076923078,4197.94871794872,770.0,2047.0,2048.0,0.0,0.0,4.0,4.0,4.0,4.0,0.0,4.0,4.0,4.0,4.0,0.0,4.0,1.0,4.0,4.0,4.0,4.0
6.0,0.0,4174.871794871797,4120.512820512822,4165.641025641027,4175.897435897437,4186.153846153848,4112.307692307694,4193.846153846155,4192.307692307694,4233.846153846155,4185.128205128207,4193.333333333335,4214.3589743589755,4190.769230769232,4194.3589743589755,801.0,2047.0,2048.0,0.0,0.0,4.0,4.0,4.0,4.0,0.0,4.0,4.0,4.0,4.0,0.0,4.0,1.0,4.0,4.0,4.0,4.0
7.0,0.0,4154.871794871797,4108.20512820513,4151.794871794873,4171.794871794873,4183.076923076925,4111.282051282053,4197.94871794872,4205.128205128207,4239.487179487181,4185.128205128207,4184.615384615386,4201.0256410256425,4181.538461538463,4183.076923076925,790.0,2047.0,2048.0,0.0,0.0,4.0,4.0,4.0,4.0,0.0,4.0,4.0,4.0,4.0,0.0,4.0,1.0,4.0,4.0,4.0,4.0
8.0,0.0,4173.846153846155,4131.794871794873,4170.256410256412,4188.20512820513,4186.153846153848,4106.666666666668,4180.512820512822,4186.153846153848,4217.435897435899,4185.641025641027,4183.076923076925,4210.769230769232,4181.0256410256425,4194.3589743589755,622.0,2047.0,2048.0,0.0,0.0,4.0,4.0,4.0,4.0,0.0,4.0,4.0,4.0,4.0,0.0,4.0,1.0,4.0,4.0,4.0,4.0
9.0,0.0,4192.307692307694,4139.487179487181,4181.0256410256425,4197.94871794872,4186.666666666668,4107.179487179489,4174.3589743589755,4171.282051282053,4208.20512820513,4186.666666666668,4186.666666666668,4210.769230769232,4187.179487179489,4209.23076923077,0.0,2047.0,2048.0,0.0,0.0,4.0,4.0,4.0,4.0,0.0,4.0,4.0,4.0,4.0,0.0,4.0,1.0,4.0,4.0,4.0,4.0
10.0,0.0,4189.23076923077,4131.282051282053,4173.846153846155,4195.384615384617,4184.615384615386,4107.179487179489,4182.051282051283,4174.871794871797,4222.564102564104,4186.666666666668,4188.20512820513,4208.71794871795,4193.846153846155,4206.153846153848,854.0,2047.0,2048.0,0.0,0.0,4.0,4.0,4.0,4.0,0.0,4.0,4.0,4.0,4.0,0.0,4.0,1.0,4.0,4.0,4.0,4.0
11.0,0.0,4200.000000000002,4144.615384615386,4188.20512820513,4201.0256410256425,4187.179487179489,4097.435897435899,4176.923076923078,4170.256410256412,4229.23076923077,4185.128205128207,4198.97435897436,4219.487179487181,4204.615384615386,4213.846153846155,837.0,2047.0,2048.0,0.0,0.0,4.0,4.0,4.0,4.0,0.0,4.0,4.0,4.0,4.0,0.0,4.0,1.0,4.0,4.0,4.0,4.0
12.0,0.0,4203.589743589745,4151.794871794873,4190.256410256412,4201.538461538463,4184.102564102565,4095.8974358974374,4174.3589743589755,4173.333333333335,4228.20512820513,4185.641025641027,4205.641025641027,4209.743589743592,4206.666666666668,4221.538461538463,838.0,2047.0,2048.0,0.0,0.0,4.0,4.0,4.0,4.0,0.0,4.0,4.0,4.0,4.0,0.0,4.0,1.0,4.0,4.0,4.0,4.0
13.0,0.0,4187.692307692309,4139.487179487181,4181.538461538463,4191.794871794873,4188.20512820513,4116.410256410258,4187.179487179489,4189.23076923077,4234.871794871797,4186.666666666668,4200.512820512822,4216.923076923078,4199.487179487181,4209.23076923077,61.0,2047.0,2048.0,0.0,0.0,4.0,4.0,4.0,4.0,0.0,4.0,4.0,4.0,4.0,0.0,4.0,1.0,4.0,4.0,4.0,4.0
14.0,0.0,4183.589743589745,4142.051282051283,4176.410256410258,4194.3589743589755,4188.20512820513,4134.871794871797,4188.20512820513,4186.153846153848,4234.3589743589755,4185.641025641027,4199.487179487181,4214.3589743589755,4200.512820512822,4201.538461538463,854.0,2047.0,2048.0,0.0,0.0,4.0,4.0,4.0,4.0,0.0,4.0,4.0,4.0,4.0,0.0,4.0,1.0,4.0,4.0,4.0,4.0
15.0,0.0,4183.589743589745,4140.512820512822,4173.333333333335,4196.410256410258,4183.589743589745,4132.307692307694,4185.128205128207,4183.076923076925,4237.435897435899,4185.128205128207,4205.641025641027,4209.743589743592,4207.692307692309,4209.23076923077,837.0,2047.0,2048.0,0.0,0.0,4.0,4.0,4.0,4.0,0.0,4.0,4.0,4.0,4.0,0.0,4.0,1.0,4.0,4.0,4.0,4.0
16.0,0.0,4170.256410256412,4115.897435897437,4172.8205128205145,4185.641025641027,4185.641025641027,4120.000000000002,4188.20512820513,4194.3589743589755,4249.743589743592,4185.641025641027,4204.615384615386,4219.487179487181,4205.128205128207,4208.20512820513,0.0,2047.0,2048.0,0.0,0.0,4.0,4.0,4.0,4.0,0.0,4.0,4.0,4.0,4.0,0.0,4.0,1.0,4.0,4.0,4.0,4.0
