COUNTER,INTERPOLATED,AF3,F7,F3,FC5,T7,P7,O1,O2,P8,T8,FC6,F4,F8,AF4,RAW_CQ,GYROX,GYROY,MARKER,SYNC,CQ_AF3,CQ_F7,CQ_F3,CQ_FC5,CQ_T7,CQ_P7,CQ_O1,CQ_O2,CQ_P8,CQ_T8,CQ_FC6,CQ_F4,CQ_F8,CQ_AF4,CQ_CMS,CQ_DRL
91.0,0.0,4189.23076923077,4173.846153846155,4206.153846153848,4198.46153846154,4202.051282051283,4183.589743589745,4203.589743589745,4201.0256410256425,4185.641025641027,4185.641025641027,4184.102564102565,4212.8205128205145,4198.46153846154,4184.615384615386,847.0,2047.0,2048.0,0.0,0.0,0.0,0.0,0.0,0.0,0.0,0.0,0.0,0.0,0.0,0.0,0.0,0.0,0.0,0.0,0.0,0.0
92.0,0.0,4186.153846153848,4169.743589743592,4181.538461538463,4197.435897435899,4181.0256410256425,4185.128205128207,4195.897435897437,4203.589743589745,4188.20512820513,4185.641025641027,4178.46153846154,4213.846153846155,4185.128205128207,4190.256410256412,880.0,2047.0,2048.0,0.0,0.0,0.0,0.0,0.0,0.0,0.0,0.0,0.0,0.0,0.0,0.0,0.0,0.0,0.0,0.0,0.0,0.0
93.0,0.0,4174.871794871797,4164.615384615386,4134.3589743589755,4189.23076923077,4166.153846153848,4182.564102564104,4179.487179487181,4192.8205128205145,4173.846153846155,4183.076923076925,4158.97435897436,4211.282051282053,4162.051282051283,4173.333333333335,186.0,2047.0,2048.0,0.0,0.0,0.0,0.0,0.0,0.0,0.0,0.0,0.0,0.0,0.0,0.0,0.0,0.0,0.0,0.0,0.0,0.0
94.0,0.0,4174.3589743589755,4159.487179487181,4149.743589743592,4183.589743589745,4183.589743589745,4177.94871794872,4180.512820512822,4182.051282051283,4167.179487179489,4184.102564102565,4153.333333333335,4210.769230769232,4162.564102564104,4167.692307692309,859.0,2047.0,2048.0,0.0,0.0,0.0,0.0,0.0,0.0,0.0,0.0,0.0,0.0,0.0,0.0,0.0,0.0,0.0,0.0,0.0,0.0
95.0,0.0,4187.179487179489,4166.666666666668,4206.153846153848,4188.20512820513,4203.076923076925,4182.564102564104,4200.512820512822,4191.794871794873,4181.0256410256425,4184.615384615386,4168.20512820513,4212.8205128205145,4183.076923076925,4187.692307692309,847.0,2047.0,2048.0,0.0,0.0,0.0,0.0,0.0,0.0,0.0,0.0,0.0,0.0,0.0,0.0,0.0,0.0,0.0,0.0,0.0,0.0
96.0,0.0,4192.307692307694,4172.307692307694,4216.410256410258,4197.435897435899,4199.487179487181,4191.282051282053,4206.153846153848,4203.589743589745,4190.769230769232,4183.589743589745,4175.384615384617,4218.97435897436,4186.666666666668,4197.94871794872,880.0,2047.0,2048.0,0.0,0.0,0.0,0.0,0.0,0.0,0.0,0.0,0.0,0.0,0.0,0.0,0.0,0.0,0.0,0.0,0.0,0.0
97.0,0.0,4183.076923076925,4161.538461538463,4163.076923076925,4193.333333333335,4176.923076923078,4185.641025641027,4181.0256410256425,4198.97435897436,4186.666666666668,4184.615384615386,4170.256410256412,4212.307692307694,4174.871794871797,4187.692307692309,186.0,2047.0,2048.0,0.0,0.0,0.0,0.0,0.0,0.0,0.0,0.0,0.0,0.0,0.0,0.0,0.0,0.0,0.0,0.0,0.0,0.0
98.0,0.0,4173.846153846155,4152.307692307694,4136.923076923078,4180.512820512822,4174.3589743589755,4176.923076923078,4165.641025641027,4190.256410256412,4183.076923076925,4185.641025641027,4163.076923076925,4207.179487179489,4162.564102564104,4177.435897435899,859.0,2047.0,2048.0,0.0,0.0,0.0,0.0,0.0,0.0,0.0,0.0,0.0,0.0,0.0,0.0,0.0,0.0,0.0,0.0,0.0,0.0
99.0,0.0,4180.000000000002,4156.410256410258,4183.076923076925,4185.641025641027,4194.871794871797,4181.538461538463,4183.076923076925,4191.794871794873,4183.076923076925,4184.615384615386,4166.666666666668,4212.8205128205145,4168.71794871795,4186.666666666668,847.0,2047.0,2048.0,0.0,0.0,0.0,0.0,0.0,0.0,0.0,0.0,0.0,0.0,0.0,0.0,0.0,0.0,0.0,0.0,0.0,0.0
100.0,0.0,4191.282051282053,4160.000000000002,4221.0256410256425,4199.487179487181,4200.512820512822,4182.051282051283,4195.384615384617,4190.256410256412,4178.97435897436,4183.589743589745,4176.410256410258,4211.794871794873,4183.589743589745,4200.000000000002,880.0,2047.0,2048.0,0.0,0.0,0.0,0.0,0.0,0.0,0.0,0.0,0.0,0.0,0.0,0.0,0.0,0.0,0.0,0.0,0.0,0.0
101.0,0.0,4186.666666666668,4150.769230769232,4201.0256410256425,4191.282051282053,4187.692307692309,4170.769230769232,4184.615384615386,4181.538461538463,4169.23076923077,4184.102564102565,4170.256410256412,4214.3589743589755,4176.410256410258,4193.333333333335,186.0,2047.0,2048.0,0.0,0.0,0.0,0.0,0.0,0.0,0.0,0.0,0.0,0.0,0.0,0.0,0.0,0.0,0.0,0.0,0.0,0.0
102.0,0.0,4172.8205128205145,4140.000000000002,4150.256410256412,4179.487179487181,4169.23076923077,4168.20512820513,4170.256410256412,4182.564102564104,4167.179487179489,4185.128205128207,4162.564102564104,4215.897435897437,4165.641025641027,4181.538461538463,859.0,2047.0,2048.0,0.0,0.0,0.0,0.0,0.0,0.0,0.0,0.0,0.0,0.0,0.0,0.0,0.0,0.0,0.0,0.0,0.0,0.0
103.0,0.0,4172.307692307694,4140.000000000002,4120.512820512822,4184.102564102565,4164.102564102565,4171.794871794873,4155.897435897437,4185.128205128207,4170.769230769232,4185.641025641027,4168.71794871795,4213.333333333335,4169.743589743592,4186.153846153848,847.0,2047.0,2048.0,0.0,0.0,0.0,0.0,0.0,0.0,0.0,0.0,0.0,0.0,0.0,0.0,0.0,0.0,0.0,0.0,0.0,0.0
104.0,0.0,4178.97435897436,4138.46153846154,4150.256410256412,4186.153846153848,4180.512820512822,4171.282051282053,4159.487179487181,4177.435897435899,4164.615384615386,4184.615384615386,4167.179487179489,4215.897435897437,4165.641025641027,4188.20512820513,880.0,2047.0,2048.0,0.0,0.0,0.0,0.0,0.0,0.0,0.0,0.0,0.0,0.0,0.0,0.0,0.0,0.0,0.0,0.0,0.0,0.0
105.0,0.0,4175.897435897437,4134.871794871797,4220.512820512822,4182.564102564104,4207.179487179489,4172.307692307694,4191.282051282053,4175.897435897437,4159.487179487181,4184.615384615386,4151.794871794873,4209.743589743592,4151.282051282053,4174.871794871797,186.0,2047.0,2048.0,0.0,0.0,0.0,0.0,0.0,0.0,0.0,0.0,0.0,0.0,0.0,0.0,0.0,0.0,0.0,0.0,0.0,0.0
106.0,0.0,4171.794871794873,4138.46153846154,4244.615384615386,4185.641025641027,4211.794871794873,4173.333333333335,4197.435897435899,4180.000000000002,4165.641025641027,4185.128205128207,4147.692307692309,4208.20512820513,4151.282051282053,4169.23076923077,859.0,2047.0,2048.0,0.0,0.0,0.0,0.0,0.0,0.0,0.0,0.0,0.0,0.0,0.0,0.0,0.0,0.0,0.0,0.0,0.0,0.0
107.0,0.0,4172.307692307694,4141.0256410256425,4171.794871794873,4186.153846153848,4175.897435897437,4167.179487179489,4160.512820512822,4180.000000000002,4169.743589743592,4186.153846153848,4153.333333333335,4208.71794871795,4156.410256410258,4172.307692307694,847.0,2047.0,2048.0,0.0,0.0,0.0,0.0,0.0,0.0,0.0,0.0,0.0,0.0,0.0,0.0,0.0,0.0,0.0,0.0,0.0,0.0
108.0,0.0,4173.846153846155,4138.46153846154,4097.435897435899,4185.128205128207,4152.307692307694,4166.153846153848,4141.0256410256425,4182.564102564104,4169.743589743592,4185.641025641027,4152.307692307694,4206.153846153848,4155.384615384617,4173.333333333335,880.0,2047.0,2048.0,0.0,0.0,0.0,0.0,0.0,0.0,0.0,0.0,0.0,0.0,0.0,0.0,0.0,0.0,0.0,0.0,0.0,0.0
109.0,0.0,4173.333333333335,4142.564102564104,4120.000000000002,4184.615384615386,4175.384615384617,4169.743589743592,4159.487179487181,4180.512820512822,4168.20512820513,4185.128205128207,4144.102564102565,4207.692307692309,4152.307692307694,4169.743589743592,186.0,2047.0,2048.0,0.0,0.0,0.0,0.0,0.0,0.0,0.0,0.0,0.0,0.0,0.0,0.0,0.0,0.0,0.0,0.0,0.0,0.0
110.0,0.0,4170.256410256412,4148.71794871795,4197.94871794872,4181.0256410256425,4205.128205128207,4169.743589743592,4186.153846153848,4172.8205128205145,4166.666666666668,4185.128205128207,4143.076923076925,4206.666666666668,4151.282051282053,4167.179487179489,859.0,2047.0,2048.0,0.0,0.0,0.0,0.0,0.0,0.0,0.0,0.0,0.0,0.0,0.0,0.0,0.0,0.0,0.0,0.0,0.0,0.0
111.0,0.0,4178.97435897436,4157.435897435899,4228.71794871795,4185.128205128207,4204.615384615386,4175.384615384617,4193.846153846155,4175.897435897437,4168.20512820513,4184.615384615386,4158.97435897436,4213.333333333335,4161.538461538463,4172.8205128205145,847.0,2047.0,2048.0,0.0,0.0,0.0,0.0,0.0,0.0,0.0,0.0,0.0,0.0,0.0,0.0,0.0,0.0,0.0,0.0,0.0,0.0
112.0,0.0,4187.692307692309,4164.102564102565,4176.410256410258,4190.769230769232,4179.487179487181,4185.128205128207,4178.46153846154,4187.179487179489,4177.435897435899,4182.564102564104,4171.282051282053,4215.897435897437,4172.8205128205145,4180.512820512822,880.0,2047.0,2048.0,0.0,0.0,0.0,0.0,0.0,0.0,0.0,0.0,0.0,0.0,0.0,0.0,0.0,0.0,0.0,0.0,0.0,0.0
113.0,0.0,4183.076923076925,4158.46153846154,4133.333333333335,4186.153846153848,4170.769230769232,4181.538461538463,4167.692307692309,4195.897435897437,4184.102564102565,4182.564102564104,4169.743589743592,4212.307692307694,4170.769230769232,4183.076923076925,186.0,2047.0,2048.0,0.0,0.0,0.0,0.0,0.0,0.0,0.0,0.0,0.0,0.0,0.0,0.0,0.0,0.0,0.0,0.0,0.0,0.0
114.0,0.0,4181.538461538463,4156.410256410258,4163.076923076925,4185.641025641027,4185.641025641027,4176.923076923078,4178.97435897436,4198.46153846154,4178.97435897436,4183.589743589745,4170.256410256412,4214.3589743589755,4168.71794871795,4184.615384615386,859.0,2047.0,2048.0,0.0,0.0,0.0,0.0,0.0,0.0,0.0,0.0,0.0,0.0,0.0,0.0,0.0,0.0,0.0,0.0,0.0,0.0
115.0,0.0,4184.615384615386,4164.102564102565,4198.97435897436,4195.897435897437,4191.794871794873,4181.0256410256425,4190.256410256412,4193.333333333335,4170.769230769232,4182.564102564104,4172.8205128205145,4207.692307692309,4174.3589743589755,4186.666666666668,847.0,2047.0,2048.0,0.0,0.0,0.0,0.0,0.0,0.0,0.0,0.0,0.0,0.0,0.0,0.0,0.0,0.0,0.0,0.0,0.0,0.0
116.0,0.0,4181.0256410256425,4161.0256410256425,4188.71794871795,4193.333333333335,4189.23076923077,4178.46153846154,4187.692307692309,4187.692307692309,4170.769230769232,4182.051282051283,4162.051282051283,4204.102564102565,4166.666666666668,4176.410256410258,880.0,2047.0,2048.0,0.0,0.0,0.0,0.0,0.0,0.0,0.0,0.0,0.0,0.0,0.0,0.0,0.0,0.0,0.0,0.0,0.0,0.0
117.0,0.0,4173.333333333335,4150.769230769232,4152.307692307694,4183.076923076925,4181.0256410256425,4176.410256410258,4186.153846153848,4190.769230769232,4173.333333333335,4185.128205128207,4156.923076923078,4207.692307692309,4157.435897435899,4169.743589743592,186.0,2047.0,2048.0,0.0,0.0,0.0,0.0,0.0,0.0,0.0,0.0,0.0,0.0,0.0,0.0,0.0,0.0,0.0,0.0,0.0,0.0
118.0,0.0,4171.794871794873,4153.333333333335,4130.256410256412,4184.615384615386,4174.871794871797,4180.000000000002,4185.641025641027,4190.256410256412,4172.307692307694,4186.666666666668,4162.051282051283,4208.71794871795,4157.94871794872,4174.3589743589755,859.0,2047.0,2048.0,0.0,0.0,0.0,0.0,0.0,0.0,0.0,0.0,0.0,0.0,0.0,0.0,0.0,0.0,0.0,0.0,0.0,0.0
119.0,0.0,4176.410256410258,4162.051282051283,4143.076923076925,4195.384615384617,4177.94871794872,4175.384615384617,4182.051282051283,4187.179487179489,4176.410256410258,4185.128205128207,4160.000000000002,4213.846153846155,4154.3589743589755,4174.871794871797,847.0,2047.0,2048.0,0.0,0.0,0.0,0.0,0.0,0.0,0.0,0.0,0.0,0.0,0.0,0.0,0.0,0.0,0.0,0.0,0.0,0.0
120.0,0.0,4184.615384615386,4168.71794871795,4197.94871794872,4202.051282051283,4195.897435897437,4166.153846153848,4190.256410256412,4190.769230769232,4188.20512820513,4185.641025641027,4166.666666666668,4212.307692307694,4165.641025641027,4181.0256410256425,880.0,2047.0,2048.0,0.0,0.0,0.0,0.0,0.0,0.0,0.0,0.0,0.0,0.0,0.0,0.0,0.0,0.0,0.0,0.0,0.0,0.0
121.0,0.0,4182.051282051283,4168.20512820513,4256.410256410258,4196.410256410258,4220.512820512822,4167.692307692309,4204.615384615386,4188.71794871795,4183.589743589745,4187.179487179489,4172.307692307694,4209.743589743592,4173.846153846155,4183.589743589745,186.0,2047.0,2048.0,0.0,0.0,0.0,0.0,0.0,0.0,0.0,0.0,0.0,0.0,0.0,0.0,0.0,0.0,0.0,0.0,0.0,0.0
122.0,0.0,4169.23076923077,4151.282051282053,4206.666666666668,4189.743589743592,4197.94871794872,4175.897435897437,4189.23076923077,4183.076923076925,4166.666666666668,4184.102564102565,4159.487179487181,4209.23076923077,4154.3589743589755,4169.743589743592,859.0,2047.0,2048.0,0.0,0.0,0.0,0.0,0.0,0.0,0.0,0.0,0.0,0.0,0.0,0.0,0.0,0.0,0.0,0.0,0.0,0.0
123.0,0.0,4173.333333333335,4147.692307692309,4073.846153846155,4193.846153846155,4142.051282051283,4172.307692307694,4137.435897435899,4181.538461538463,4169.23076923077,4183.076923076925,4164.102564102565,4211.282051282053,4160.000000000002,4172.8205128205145,847.0,2047.0,2048.0,0.0,0.0,0.0,0.0,0.0,0.0,0.0,0.0,0.0,0.0,0.0,0.0,0.0,0.0,0.0,0.0,0.0,0.0
124.0,0.0,4192.307692307694,4166.153846153848,4064.615384615386,4204.102564102565,4144.615384615386,4167.179487179489,4128.20512820513,4185.641025641027,4185.128205128207,4185.641025641027,4194.3589743589755,4218.97435897436,4195.897435897437,4198.46153846154,880.0,2047.0,2048.0,0.0,0.0,0.0,0.0,0.0,0.0,0.0,0.0,0.0,0.0,0.0,0.0,0.0,0.0,0.0,0.0,0.0,0.0
125.0,0.0,4187.692307692309,4173.333333333335,4218.46153846154,4202.564102564104,4209.23076923077,4177.435897435899,4200.512820512822,4194.871794871797,4188.20512820513,4185.641025641027,4188.71794871795,4212.8205128205145,4187.179487179489,4195.897435897437,186.0,2047.0,2048.0,0.0,0.0,0.0,0.0,0.0,0.0,0.0,0.0,0.0,0.0,0.0,0.0,0.0,0.0,0.0,0.0,0.0,0.0
126.0,0.0,4171.282051282053,4165.641025641027,4314.3589743589755,4194.871794871797,4241.538461538463,4184.102564102565,4245.641025641027,4198.97435897436,4184.102564102565,4183.589743589745,4162.051282051283,4209.743589743592,4161.0256410256425,4175.897435897437,859.0,2047.0,2048.0,0.0,0.0,0.0,0.0,0.0,0.0,0.0,0.0,0.0,0.0,0.0,0.0,0.0,0.0,0.0,0.0,0.0,0.0
127.0,0.0,4178.46153846154,4168.20512820513,4224.102564102565,4198.97435897436,4193.333333333335,4171.794871794873,4197.435897435899,4199.487179487181,4188.20512820513,4184.102564102565,4178.97435897436,4216.410256410258,4184.615384615386,4185.641025641027,847.0,2047.0,2048.0,0.0,0.0,0.0,0.0,0.0,0.0,0.0,0.0,0.0,0.0,0.0,0.0,0.0,0.0,0.0,0.0,0.0,0.0
128.0,0.0,4181.538461538463,4166.666666666668,4110.769230769232,4198.97435897436,4152.307692307694,4167.692307692309,4156.923076923078,4203.589743589745,4192.8205128205145,4184.615384615386,4191.282051282053,4211.282051282053,4196.410256410258,4193.846153846155,880.0,2047.0,2048.0,0.0,0.0,0.0,0.0,4.0,0.0,0.0,0.0,0.0,0.0,0.0,0.0,0.0,0.0,0.0,0.0,4.0,4.0
0.0,0.0,4163.076923076925,4148.71794871795,4143.076923076925,4186.666666666668,4182.051282051283,4172.307692307694,4182.051282051283,4194.3589743589755,4182.051282051283,4184.102564102565,4164.615384615386,4207.692307692309,4168.20512820513,4171.794871794873,679.0,2047.0,2048.0,0.0,0.0,0.0,0.0,4.0,0.0,0.0,0.0,0.0,0.0,0.0,0.0,0.0,0.0,0.0,0.0,4.0,4.0
1.0,0.0,4156.923076923078,4139.487179487181,4201.0256410256425,4179.487179487181,4205.641025641027,4160.512820512822,4186.153846153848,4167.692307692309,4167.179487179489,4184.102564102565,4148.20512820513,4208.20512820513,4157.94871794872,4158.46153846154,827.0,2047.0,2048.0,0.0,0.0,0.0,0.0,4.0,4.0,0.0,0.0,0.0,0.0,0.0,0.0,0.0,0.0,0.0,0.0,4.0,4.0
2.0,0.0,4171.282051282053,4152.307692307694,4155.897435897437,4186.153846153848,4175.897435897437,4157.435897435899,4154.871794871797,4165.641025641027,4171.282051282053,4184.102564102565,4163.076923076925,4211.794871794873,4170.769230769232,4172.8205128205145,804.0,2047.0,2048.0,0.0,0.0,4.0,0.0,4.0,4.0,0.0,0.0,0.0,0.0,0.0,0.0,0.0,0.0,0.0,0.0,4.0,4.0
3.0,0.0,4176.923076923078,4167.692307692309,4111.282051282053,4189.23076923077,4158.46153846154,4169.23076923077,4151.794871794873,4181.0256410256425,4180.512820512822,4184.102564102565,4174.3589743589755,4214.871794871797,4174.3589743589755,4182.051282051283,781.0,2047.0,2048.0,0.0,0.0,4.0,4.0,4.0,4.0,0.0,0.0,0.0,0.0,0.0,0.0,0.0,0.0,0.0,0.0,4.0,4.0
4.0,0.0,4165.641025641027,4163.589743589745,4177.435897435899,4184.102564102565,4195.897435897437,4163.589743589745,4181.538461538463,4174.871794871797,4171.282051282053,4184.102564102565,4162.564102564104,4209.23076923077,4165.641025641027,4172.8205128205145,0.0,2047.0,2048.0,0.0,0.0,4.0,4.0,4.0,4.0,0.0,0.0,0.0,0.0,0.0,0.0,0.0,0.0,0.0,0.0,4.0,4.0
5.0,0.0,4165.641025641027,4154.3589743589755,4257.94871794872,4184.102564102565,4223.076923076925,4154.871794871797,4199.487179487181,4168.71794871795,4164.615384615386,4184.102564102565,4154.3589743589755,4211.282051282053,4164.615384615386,4168.71794871795,790.0,2047.0,2048.0,0.0,0.0,4.0,4.0,4.0,4.0,0.0,4.0,0.0,0.0,0.0,0.0,0.0,0.0,0.0,0.0,4.0,4.0
6.0,0.0,4169.743589743592,4152.307692307694,4203.076923076925,4183.589743589745,4186.153846153848,4164.615384615386,4183.589743589745,4180.000000000002,4174.871794871797,4184.102564102565,4163.076923076925,4208.71794871795,4166.666666666668,4171.794871794873,797.0,2047.0,2048.0,0.0,0.0,4.0,4.0,4.0,4.0,0.0,4.0,4.0,0.0,0.0,0.0,0.0,0.0,0.0,0.0,4.0,4.0
7.0,0.0,4170.256410256412,4152.8205128205145,4100.000000000002,4181.538461538463,4149.743589743592,4170.769230769232,4163.589743589745,4187.179487179489,4184.615384615386,4184.102564102565,4167.179487179489,4206.153846153848,4165.128205128207,4172.8205128205145,797.0,2047.0,2048.0,0.0,0.0,4.0,4.0,4.0,4.0,0.0,4.0,4.0,4.0,0.0,0.0,0.0,0.0,0.0,0.0,4.0,4.0
8.0,0.0,4178.97435897436,4162.051282051283,4118.97435897436,4191.794871794873,4167.692307692309,4166.666666666668,4165.128205128207,4186.153846153848,4187.179487179489,4184.615384615386,4170.769230769232,4215.897435897437,4178.46153846154,4182.051282051283,622.0,2047.0,2048.0,0.0,0.0,4.0,4.0,4.0,4.0,0.0,4.0,4.0,4.0,4.0,0.0,0.0,0.0,0.0,0.0,4.0,4.0
9.0,0.0,4187.179487179489,4177.94871794872,4223.589743589745,4201.0256410256425,4205.128205128207,4167.692307692309,4187.179487179489,4185.128205128207,4183.589743589745,4185.128205128207,4176.410256410258,4215.384615384617,4192.307692307694,4189.23076923077,0.0,2047.0,2048.0,0.0,0.0,4.0,4.0,4.0,4.0,0.0,4.0,4.0,4.0,4.0,0.0,0.0,0.0,0.0,0.0,4.0,4.0
10.0,0.0,4180.512820512822,4174.3589743589755,4259.487179487181,4192.307692307694,4213.333333333335,4170.256410256412,4202.564102564104,4183.589743589745,4182.051282051283,4184.615384615386,4170.769230769232,4213.333333333335,4181.0256410256425,4182.051282051283,859.0,2047.0,2048.0,0.0,0.0,4.0,4.0,4.0,4.0,0.0,4.0,4.0,4.0,4.0,0.0,0.0,0.0,4.0,0.0,4.0,4.0
11.0,0.0,4179.487179487181,4161.0256410256425,4196.410256410258,4188.20512820513,4183.076923076925,4168.20512820513,4188.20512820513,4184.102564102565,4187.692307692309,4185.641025641027,4169.743589743592,4213.333333333335,4174.3589743589755,4181.538461538463,847.0,2047.0,2048.0,0.0,0.0,4.0,4.0,4.0,4.0,0.0,4.0,4.0,4.0,4.0,0.0,0.0,0.0,4.0,4.0,4.0,4.0
12.0,0.0,4196.923076923078,4177.435897435899,4150.769230769232,4203.589743589745,4165.641025641027,4169.743589743592,4164.615384615386,4184.615384615386,4185.641025641027,4185.641025641027,4181.0256410256425,4214.3589743589755,4188.20512820513,4193.333333333335,860.0,2047.0,2048.0,0.0,0.0,4.0,4.0,4.0,4.0,0.0,4.0,4.0,4.0,4.0,0.0,4.0,0.0,4.0,4.0,4.0,4.0
13.0,0.0,4199.487179487181,4192.307692307694,4178.97435897436,4210.256410256412,4182.564102564104,4175.384615384617,4171.282051282053,4182.564102564104,4181.0256410256425,4183.589743589745,4180.512820512822,4217.435897435899,4189.23076923077,4193.333333333335,186.0,2047.0,2048.0,0.0,0.0,4.0,4.0,4.0,4.0,0.0,4.0,4.0,4.0,4.0,0.0,4.0,2.0,4.0,4.0,4.0,4.0
14.0,0.0,4182.051282051283,4177.94871794872,4211.282051282053,4198.97435897436,4198.97435897436,4180.000000000002,4195.384615384617,4184.615384615386,4184.615384615386,4182.564102564104,4169.23076923077,4212.307692307694,4181.0256410256425,4183.076923076925,859.0,2047.0,2048.0,0.0,0.0,4.0,4.0,4.0,4.0,0.0,4.0,4.0,4.0,4.0,0.0,4.0,2.0,4.0,4.0,4.0,4.0
15.0,0.0,4181.538461538463,4171.794871794873,4204.615384615386,4193.846153846155,4195.897435897437,4183.589743589745,4191.794871794873,4184.615384615386,4185.128205128207,4184.102564102565,4168.20512820513,4209.743589743592,4184.102564102565,4181.538461538463,847.0,2047.0,2048.0,0.0,0.0,4.0,4.0,4.0,4.0,0.0,4.0,4.0,4.0,4.0,0.0,4.0,2.0,4.0,4.0,4.0,4.0
16.0,0.0,4194.3589743589755,4183.076923076925,4177.435897435899,4200.512820512822,4180.512820512822,4181.0256410256425,4175.897435897437,4183.076923076925,4181.538461538463,4185.128205128207,4177.94871794872,4205.641025641027,4186.153846153848,4185.641025641027,0.0,2047.0,2048.0,0.0,0.0,4.0,4.0,4.0,4.0,0.0,4.0,4.0,4.0,4.0,0.0,4.0,2.0,4.0,4.0,4.0,4.0
17.0,0.0,4194.871794871797,4186.666666666668,4177.435897435899,4200.512820512822,4180.000000000002,4173.846153846155,4176.923076923078,4183.076923076925,4183.076923076925,4185.128205128207,4179.487179487181,4206.153846153848,4182.564102564104,4182.051282051283,0.0,2047.0,2048.0,0.0,0.0,4.0,4.0,4.0,4.0,0.0,4.0,4.0,4.0,4.0,0.0,4.0,2.0,4.0,4.0,4.0,4.0
18.0,0.0,4192.307692307694,4182.051282051283,4201.538461538463,4191.282051282053,4191.282051282053,4176.410256410258,4184.615384615386,4185.641025641027,4186.153846153848,4185.641025641027,4176.923076923078,4214.3589743589755,4183.589743589745,4180.512820512822,0.0,2047.0,2048.0,0.0,0.0,4.0,4.0,4.0,4.0,0.0,4.0,4.0,4.0,4.0,0.0,4.0,2.0,4.0,4.0,4.0,4.0
19.0,0.0,4194.871794871797,4184.615384615386,4201.0256410256425,4191.794871794873,4189.23076923077,4182.564102564104,4186.153846153848,4188.71794871795,4186.666666666668,4184.615384615386,4183.589743589745,4211.282051282053,4190.256410256412,4186.666666666668,0.0,2047.0,2048.0,0.0,0.0,4.0,4.0,4.0,4.0,0.0,4.0,4.0,4.0,4.0,0.0,4.0,2.0,4.0,4.0,4.0,4.0
20.0,0.0,4191.282051282053,4186.153846153848,4181.538461538463,4201.538461538463,4183.076923076925,4176.410256410258,4181.538461538463,4185.128205128207,4183.076923076925,4184.615384615386,4183.589743589745,4210.769230769232,4186.666666666668,4185.128205128207,0.0,2047.0,2048.0,0.0,0.0,4.0,4.0,4.0,4.0,0.0,4.0,4.0,4.0,4.0,0.0,4.0,2.0,4.0,4.0,4.0,4.0
21.0,0.0,4181.538461538463,4184.102564102565,4175.384615384617,4199.487179487181,4182.051282051283,4166.153846153848,4179.487179487181,4182.564102564104,4181.538461538463,4184.615384615386,4174.3589743589755,4212.8205128205145,4183.076923076925,4182.051282051283,0.0,2047.0,2048.0,0.0,0.0,4.0,4.0,4.0,4.0,0.0,4.0,4.0,4.0,4.0,0.0,4.0,2.0,4.0,4.0,4.0,4.0
22.0,0.0,4183.589743589745,4187.179487179489,4193.846153846155,4198.46153846154,4187.179487179489,4170.256410256412,4187.179487179489,4194.3589743589755,4191.282051282053,4185.128205128207,4180.000000000002,4212.307692307694,4196.410256410258,4189.743589743592,0.0,2047.0,2048.0,0.0,0.0,4.0,4.0,4.0,4.0,0.0,4.0,4.0,4.0,4.0,0.0,4.0,2.0,4.0,4.0,4.0,4.0
23.0,0.0,4190.256410256412,4188.20512820513,4203.076923076925,4203.589743589745,4190.256410256412,4180.512820512822,4189.743589743592,4202.051282051283,4195.384615384617,4185.128205128207,4187.179487179489,4215.384615384617,4200.000000000002,4191.794871794873,0.0,2047.0,2048.0,0.0,0.0,4.0,4.0,4.0,4.0,0.0,4.0,4.0,4.0,4.0,0.0,4.0,2.0,4.0,4.0,4.0,4.0
24.0,0.0,4185.128205128207,4185.641025641027,4184.102564102565,4201.538461538463,4184.615384615386,4183.076923076925,4184.102564102565,4200.000000000002,4192.307692307694,4185.128205128207,4181.0256410256425,4211.282051282053,4191.794871794873,4186.666666666668,0.0,2047.0,2048.0,0.0,0.0,4.0,4.0,4.0,4.0,0.0,4.0,4.0,4.0,4.0,0.0,4.0,2.0,4.0,4.0,4.0,4.0
25.0,0.0,4184.615384615386,4185.128205128207,4183.589743589745,4198.46153846154,4182.564102564104,4177.94871794872,4183.076923076925,4196.410256410258,4192.307692307694,4184.615384615386,4182.051282051283,4210.256410256412,4196.923076923078,4187.179487179489,0.0,2047.0,2048.0,0.0,0.0,4.0,4.0,4.0,4.0,0.0,4.0,4.0,4.0,4.0,0.0,4.0,2.0,4.0,4.0,4.0,4.0
26.0,0.0,4194.3589743589755,4185.641025641027,4197.435897435899,4201.0256410256425,4183.076923076925,4170.769230769232,4184.102564102565,4190.769230769232,4192.8205128205145,4184.615384615386,4188.71794871795,4212.8205128205145,4204.102564102565,4193.846153846155,0.0,2047.0,2048.0,0.0,0.0,4.0,4.0,4.0,4.0,0.0,4.0,4.0,4.0,4.0,0.0,4.0,2.0,4.0,4.0,4.0,4.0
27.0,0.0,4198.46153846154,4187.179487179489,4194.3589743589755,4202.051282051283,4185.128205128207,4169.743589743592,4182.051282051283,4186.666666666668,4193.333333333335,4185.128205128207,4187.692307692309,4210.256410256412,4203.589743589745,4197.94871794872,0.0,2047.0,2048.0,0.0,0.0,4.0,4.0,4.0,4.0,0.0,4.0,4.0,4.0,4.0,0.0,4.0,2.0,4.0,4.0,4.0,4.0
28.0,0.0,4191.282051282053,4183.589743589745,4184.615384615386,4198.46153846154,4187.692307692309,4171.794871794873,4181.538461538463,4188.71794871795,4190.769230769232,4185.128205128207,4184.615384615386,4213.846153846155,4201.538461538463,4195.384615384617,0.0,2047.0,2048.0,0.0,0.0,4.0,4.0,4.0,4.0,0.0,4.0,4.0,4.0,4.0,0.0,4.0,2.0,4.0,4.0,4.0,4.0
29.0,0.0,4181.0256410256425,4169.743589743592,4177.94871794872,4188.71794871795,4183.076923076925,4170.769230769232,4185.641025641027,4189.23076923077,4189.23076923077,4185.128205128207,4178.97435897436,4211.282051282053,4193.333333333335,4184.102564102565,0.0,2047.0,2048.0,0.0,0.0,4.0,4.0,4.0,4.0,0.0,4.0,4.0,4.0,4.0,0.0,4.0,2.0,4.0,4.0,4.0,4.0
30.0,0.0,4181.538461538463,4164.615384615386,4183.589743589745,4185.641025641027,4184.615384615386,4171.282051282053,4186.153846153848,4185.128205128207,4189.23076923077,4185.128205128207,4178.97435897436,4210.256410256412,4186.153846153848,4179.487179487181,0.0,2047.0,2048.0,0.0,0.0,4.0,4.0,4.0,4.0,0.0,4.0,4.0,4.0,4.0,0.0,4.0,2.0,4.0,4.0,4.0,4.0
31.0,0.0,4188.71794871795,4175.897435897437,4193.333333333335,4197.94871794872,4187.692307692309,4176.923076923078,4184.102564102565,4189.23076923077,4192.307692307694,4185.128205128207,4187.692307692309,4214.3589743589755,4197.94871794872,4185.641025641027,0.0,2047.0,2048.0,0.0,0.0,4.0,4.0,4.0,4.0,0.0,4.0,4.0,4.0,4.0,0.0,4.0,2.0,4.0,4.0,4.0,4.0
32.0,0.0,4184.102564102565,4175.897435897437,4192.8205128205145,4200.512820512822,4187.692307692309,4175.897435897437,4187.692307692309,4194.3589743589755,4191.282051282053,4185.128205128207,4184.615384615386,4212.307692307694,4203.076923076925,4183.589743589745,0.0,2047.0,2048.0,0.0,0.0,4.0,4.0,4.0,4.0,0.0,4.0,4.0,4.0,4.0,0.0,4.0,2.0,4.0,4.0,4.0,4.0
33.0,0.0,4174.871794871797,4165.128205128207,4189.743589743592,4190.256410256412,4186.666666666668,4169.743589743592,4186.666666666668,4189.743589743592,4188.71794871795,4185.128205128207,4182.564102564104,4215.897435897437,4200.000000000002,4182.051282051283,0.0,2047.0,2048.0,0.0,0.0,4.0,4.0,4.0,4.0,0.0,4.0,4.0,4.0,4.0,0.0,4.0,2.0,4.0,4.0,4.0,4.0
34.0,0.0,4175.384615384617,4165.641025641027,4165.128205128207,4191.282051282053,4176.410256410258,4169.743589743592,4169.743589743592,4182.564102564104,4187.179487179489,4185.128205128207,4188.71794871795,4215.384615384617,4204.615384615386,4187.692307692309,0.0,2047.0,2048.0,0.0,0.0,4.0,4.0,4.0,4.0,0.0,4.0,4.0,4.0,4.0,0.0,4.0,2.0,4.0,4.0,4.0,4.0
35.0,0.0,4185.641025641027,4170.769230769232,4143.076923076925,4200.000000000002,4172.307692307694,4176.410256410258,4166.666666666668,4185.128205128207,4184.615384615386,4185.128205128207,4183.589743589745,4212.307692307694,4200.512820512822,4186.153846153848,0.0,2047.0,2048.0,0.0,0.0,4.0,4.0,4.0,4.0,0.0,4.0,4.0,4.0,4.0,0.0,4.0,2.0,4.0,4.0,4.0,4.0
36.0,0.0,4185.641025641027,4168.71794871795,4180.512820512822,4198.97435897436,4190.769230769232,4181.0256410256425,4190.769230769232,4191.794871794873,4187.179487179489,4185.128205128207,4177.435897435899,4214.3589743589755,4185.128205128207,4180.512820512822,0.0,2047.0,2048.0,0.0,0.0,4.0,4.0,4.0,4.0,0.0,4.0,4.0,4.0,4.0,0.0,4.0,2.0,4.0,4.0,4.0,4.0
37.0,0.0,4180.000000000002,4167.692307692309,4234.871794871797,4197.435897435899,4208.71794871795,4178.97435897436,4204.615384615386,4185.128205128207,4184.102564102565,4185.128205128207,4180.512820512822,4210.769230769232,4182.051282051283,4181.0256410256425,0.0,2047.0,2048.0,0.0,0.0,4.0,4.0,4.0,4.0,0.0,4.0,4.0,4.0,4.0,0.0,4.0,2.0,4.0,4.0,4.0,4.0
38.0,0.0,4193.333333333335,4172.8205128205145,4223.589743589745,4208.71794871795,4193.846153846155,4172.307692307694,4186.666666666668,4181.538461538463,4184.615384615386,4185.128205128207,4188.20512820513,4214.3589743589755,4196.923076923078,4193.846153846155,0.0,2047.0,2048.0,0.0,0.0,4.0,4.0,4.0,4.0,0.0,4.0,4.0,4.0,4.0,0.0,4.0,2.0,4.0,4.0,4.0,4.0
39.0,0.0,4203.589743589745,4172.307692307694,4163.076923076925,4216.923076923078,4163.076923076925,4168.20512820513,4168.20512820513,4194.3589743589755,4194.3589743589755,4185.128205128207,4194.3589743589755,4216.923076923078,4210.256410256412,4203.589743589745,0.0,2047.0,2048.0,0.0,0.0,4.0,4.0,4.0,4.0,0.0,4.0,4.0,4.0,4.0,0.0,4.0,2.0,4.0,4.0,4.0,4.0
40.0,0.0,4193.846153846155,4163.076923076925,4153.846153846155,4212.307692307694,4170.769230769232,4172.8205128205145,4174.871794871797,4195.384615384617,4191.282051282053,4185.128205128207,4189.23076923077,4215.384615384617,4199.487179487181,4194.871794871797,0.0,2047.0,2048.0,0.0,0.0,4.0,4.0,4.0,4.0,0.0,4.0,4.0,4.0,4.0,0.0,4.0,2.0,4.0,4.0,4.0,4.0
41.0,0.0,4192.307692307694,4158.46153846154,4196.923076923078,4208.71794871795,4197.435897435899,4172.307692307694,4186.666666666668,4178.46153846154,4180.000000000002,4185.128205128207,4179.487179487181,4213.333333333335,4185.128205128207,4186.153846153848,0.0,2047.0,2048.0,0.0,0.0,4.0,4.0,4.0,4.0,0.0,4.0,4.0,4.0,4.0,0.0,4.0,2.0,4.0,4.0,4.0,4.0
42.0,0.0,4198.46153846154,4165.128205128207,4214.871794871797,4213.846153846155,4195.897435897437,4168.71794871795,4188.71794871795,4181.0256410256425,4188.71794871795,4185.128205128207,4184.102564102565,4210.256410256412,4192.8205128205145,4194.871794871797,0.0,2047.0,2048.0,0.0,0.0,4.0,4.0,4.0,4.0,0.0,4.0,4.0,4.0,4.0,0.0,4.0,2.0,4.0,4.0,4.0,4.0
43.0,0.0,4197.94871794872,4171.794871794873,4195.897435897437,4218.97435897436,4182.051282051283,4177.435897435899,4187.179487179489,4200.000000000002,4201.0256410256425,4185.128205128207,4197.94871794872,4220.000000000002,4205.641025641027,4205.641025641027,0.0,2047.0,2048.0,0.0,0.0,4.0,4.0,4.0,4.0,0.0,4.0,4.0,4.0,4.0,0.0,4.0,2.0,4.0,4.0,4.0,4.0
44.0,0.0,4198.46153846154,4167.179487179489,4178.97435897436,4215.897435897437,4178.46153846154,4181.538461538463,4184.102564102565,4199.487179487181,4192.8205128205145,4185.128205128207,4204.102564102565,4220.512820512822,4204.615384615386,4207.692307692309,0.0,2047.0,2048.0,0.0,0.0,4.0,4.0,4.0,4.0,0.0,4.0,4.0,4.0,4.0,0.0,4.0,2.0,4.0,4.0,4.0,4.0
45.0,0.0,4196.923076923078,4155.897435897437,4188.20512820513,4210.769230769232,4187.179487179489,4175.384615384617,4184.102564102565,4192.8205128205145,4188.71794871795,4185.128205128207,4194.3589743589755,4213.333333333335,4191.794871794873,4198.46153846154,0.0,2047.0,2048.0,0.0,0.0,4.0,4.0,4.0,4.0,0.0,4.0,4.0,4.0,4.0,0.0,4.0,2.0,4.0,4.0,4.0,4.0
46.0,0.0,4186.666666666668,4148.71794871795,4193.333333333335,4204.102564102565,4191.282051282053,4172.8205128205145,4189.743589743592,4203.076923076925,4201.0256410256425,4185.128205128207,4186.666666666668,4214.871794871797,4190.769230769232,4189.23076923077,0.0,2047.0,2048.0,0.0,0.0,4.0,4.0,4.0,4.0,0.0,4.0,4.0,4.0,4.0,0.0,4.0,2.0,4.0,4.0,4.0,4.0
47.0,0.0,4185.128205128207,4150.256410256412,4180.512820512822,4201.0256410256425,4184.615384615386,4172.8205128205145,4189.743589743592,4202.051282051283,4199.487179487181,4185.128205128207,4193.846153846155,4211.282051282053,4201.0256410256425,4190.769230769232,0.0,2047.0,2048.0,0.0,0.0,4.0,4.0,4.0,4.0,0.0,4.0,4.0,4.0,4.0,0.0,4.0,2.0,4.0,4.0,4.0,4.0
48.0,0.0,4192.8205128205145,4156.410256410258,4180.512820512822,4204.102564102565,4184.615384615386,4169.743589743592,4181.0256410256425,4183.589743589745,4184.615384615386,4185.128205128207,4196.410256410258,4212.307692307694,4203.589743589745,4191.282051282053,0.0,2047.0,2048.0,0.0,0.0,4.0,4.0,4.0,4.0,0.0,4.0,4.0,4.0,4.0,0.0,4.0,2.0,4.0,4.0,4.0,4.0
49.0,0.0,4189.743589743592,4154.871794871797,4183.076923076925,4201.538461538463,4183.076923076925,4169.23076923077,4180.000000000002,4181.0256410256425,4183.589743589745,4185.128205128207,4187.179487179489,4213.846153846155,4198.97435897436,4185.641025641027,0.0,2047.0,2048.0,0.0,0.0,4.0,4.0,4.0,4.0,0.0,4.0,4.0,4.0,4.0,0.0,4.0,2.0,4.0,4.0,4.0,4.0
50.0,0.0,4185.641025641027,4152.307692307694,4179.487179487181,4198.97435897436,4182.564102564104,4172.8205128205145,4184.615384615386,4195.384615384617,4192.8205128205145,4185.128205128207,4183.589743589745,4213.333333333335,4195.384615384617,4184.615384615386,0.0,2047.0,2048.0,0.0,0.0,4.0,4.0,4.0,4.0,0.0,4.0,4.0,4.0,4.0,0.0,4.0,2.0,4.0,4.0,4.0,4.0
51.0,0.0,4186.666666666668,4154.871794871797,4183.076923076925,4200.000000000002,4190.256410256412,4177.435897435899,4185.641025641027,4200.512820512822,4194.3589743589755,4185.128205128207,4187.692307692309,4215.897435897437,4192.8205128205145,4185.641025641027,0.0,2047.0,2048.0,0.0,0.0,4.0,4.0,4.0,4.0,0.0,4.0,4.0,4.0,4.0,0.0,4.0,2.0,4.0,4.0,4.0,4.0
52.0,0.0,4184.102564102565,4153.846153846155,4189.743589743592,4201.0256410256425,4191.794871794873,4182.564102564104,4188.20512820513,4200.512820512822,4193.846153846155,4185.128205128207,4190.769230769232,4211.794871794873,4193.333333333335,4184.102564102565,0.0,2047.0,2048.0,0.0,0.0,4.0,4.0,4.0,4.0,0.0,4.0,4.0,4.0,4.0,0.0,4.0,2.0,4.0,4.0,4.0,4.0
53.0,0.0,4186.666666666668,4157.94871794872,4193.846153846155,4207.179487179489,4187.692307692309,4183.076923076925,4190.769230769232,4204.102564102565,4196.410256410258,4185.128205128207,4196.410256410258,4216.410256410258,4200.512820512822,4188.71794871795,0.0,2047.0,2048.0,0.0,0.0,4.0,4.0,4.0,4.0,0.0,4.0,4.0,4.0,4.0,0.0,4.0,2.0,4.0,4.0,4.0,4.0
54.0,0.0,4197.94871794872,4165.128205128207,4187.179487179489,4211.794871794873,4181.0256410256425,4184.102564102565,4189.743589743592,4205.641025641027,4202.564102564104,4185.128205128207,4204.102564102565,4217.435897435899,4206.666666666668,4200.000000000002,0.0,2047.0,2048.0,0.0,0.0,4.0,4.0,4.0,4.0,0.0,4.0,4.0,4.0,4.0,0.0,4.0,2.0,4.0,4.0,4.0,4.0
55.0,0.0,4197.435897435899,4158.46153846154,4182.564102564104,4205.128205128207,4184.102564102565,4184.102564102565,4188.71794871795,4204.615384615386,4200.512820512822,4185.128205128207,4199.487179487181,4211.282051282053,4206.666666666668,4204.102564102565,0.0,2047.0,2048.0,0.0,0.0,4.0,4.0,4.0,4.0,0.0,4.0,4.0,4.0,4.0,0.0,4.0,2.0,4.0,4.0,4.0,4.0
56.0,0.0,4190.769230769232,4150.256410256412,4191.282051282053,4196.410256410258,4190.769230769232,4174.871794871797,4186.153846153848,4197.94871794872,4189.23076923077,4185.128205128207,4189.743589743592,4214.3589743589755,4201.538461538463,4196.410256410258,0.0,2047.0,2048.0,0.0,0.0,4.0,4.0,4.0,4.0,0.0,4.0,4.0,4.0,4.0,0.0,4.0,2.0,4.0,4.0,4.0,4.0
57.0,0.0,4190.769230769232,4153.333333333335,4191.794871794873,4196.410256410258,4186.666666666668,4168.20512820513,4183.076923076925,4193.846153846155,4190.769230769232,4185.128205128207,4188.71794871795,4210.256410256412,4200.000000000002,4190.769230769232,0.0,2047.0,2048.0,0.0,0.0,4.0,4.0,4.0,4.0,0.0,4.0,4.0,4.0,4.0,0.0,4.0,2.0,4.0,4.0,4.0,4.0
58.0,0.0,4194.871794871797,4158.46153846154,4189.23076923077,4200.512820512822,4185.641025641027,4171.282051282053,4183.076923076925,4199.487179487181,4199.487179487181,4185.128205128207,4194.871794871797,4212.307692307694,4205.128205128207,4196.410256410258,0.0,2047.0,2048.0,0.0,0.0,4.0,4.0,4.0,4.0,0.0,4.0,4.0,4.0,4.0,0.0,4.0,2.0,4.0,4.0,4.0,4.0
59.0,0.0,4190.769230769232,4153.846153846155,4187.692307692309,4200.512820512822,4188.71794871795,4170.769230769232,4181.538461538463,4196.923076923078,4192.307692307694,4185.128205128207,4189.743589743592,4214.871794871797,4196.410256410258,4192.8205128205145,0.0,2047.0,2048.0,0.0,0.0,4.0,4.0,4.0,4.0,0.0,4.0,4.0,4.0,4.0,0.0,4.0,2.0,4.0,4.0,4.0,4.0
60.0,0.0,4185.641025641027,4147.179487179489,4194.3589743589755,4198.97435897436,4191.794871794873,4167.692307692309,4184.102564102565,4186.666666666668,4180.000000000002,4185.128205128207,4181.0256410256425,4209.23076923077,4182.564102564104,4182.564102564104,0.0,2047.0,2048.0,0.0,0.0,4.0,4.0,4.0,4.0,0.0,4.0,4.0,4.0,4.0,0.0,4.0,2.0,4.0,4.0,4.0,4.0
61.0,0.0,4189.23076923077,4150.769230769232,4201.0256410256425,4200.000000000002,4189.743589743592,4171.282051282053,4190.256410256412,4190.769230769232,4183.589743589745,4185.128205128207,4186.153846153848,4212.8205128205145,4187.692307692309,4188.71794871795,0.0,2047.0,2048.0,0.0,0.0,4.0,4.0,4.0,4.0,0.0,4.0,4.0,4.0,4.0,0.0,4.0,2.0,4.0,4.0,4.0,4.0
62.0,0.0,4188.20512820513,4153.333333333335,4172.307692307694,4202.051282051283,4174.3589743589755,4174.871794871797,4184.102564102565,4202.051282051283,4195.897435897437,4185.128205128207,4192.307692307694,4212.8205128205145,4198.97435897436,4195.384615384617,0.0,2047.0,2048.0,0.0,0.0,4.0,4.0,4.0,4.0,0.0,4.0,4.0,4.0,4.0,0.0,4.0,2.0,4.0,4.0,4.0,4.0
63.0,0.0,4179.487179487181,4145.128205128207,4152.8205128205145,4200.512820512822,4175.897435897437,4172.8205128205145,4180.000000000002,4200.000000000002,4199.487179487181,4185.128205128207,4186.153846153848,4213.846153846155,4195.897435897437,4185.128205128207,0.0,2047.0,2048.0,0.0,0.0,4.0,4.0,4.0,4.0,0.0,4.0,4.0,4.0,4.0,0.0,4.0,2.0,4.0,4.0,4.0,4.0
64.0,0.0,4177.435897435899,4138.46153846154,4189.743589743592,4200.512820512822,4194.3589743589755,4170.769230769232,4197.94871794872,4192.307692307694,4192.8205128205145,4185.128205128207,4183.076923076925,4215.384615384617,4191.282051282053,4182.564102564104,679.0,2047.0,2048.0,0.0,0.0,4.0,4.0,4.0,4.0,0.0,4.0,4.0,4.0,4.0,0.0,4.0,2.0,4.0,4.0,4.0,4.0
65.0,0.0,4182.051282051283,4141.538461538463,4223.589743589745,4196.410256410258,4199.487179487181,4171.282051282053,4201.0256410256425,4182.564102564104,4186.153846153848,4185.128205128207,4186.153846153848,4212.8205128205145,4193.333333333335,4189.23076923077,827.0,2047.0,2048.0,0.0,0.0,4.0,4.0,4.0,4.0,0.0,4.0,4.0,4.0,4.0,0.0,4.0,2.0,4.0,4.0,4.0,4.0
66.0,0.0,4177.435897435899,4139.487179487181,4196.410256410258,4189.743589743592,4186.153846153848,4165.641025641027,4174.3589743589755,4172.8205128205145,4186.153846153848,4185.128205128207,4180.000000000002,4217.435897435899,4190.769230769232,4187.179487179489,804.0,2047.0,2048.0,0.0,0.0,4.0,4.0,4.0,4.0,0.0,4.0,4.0,4.0,4.0,0.0,4.0,2.0,4.0,4.0,4.0,4.0
67.0,0.0,4167.692307692309,4133.333333333335,4152.8205128205145,4190.769230769232,4174.871794871797,4159.487179487181,4165.641025641027,4172.8205128205145,4184.102564102565,4185.128205128207,4172.8205128205145,4211.794871794873,4185.641025641027,4183.589743589745,784.0,2047.0,2048.0,0.0,0.0,4.0,4.0,4.0,4.0,0.0,4.0,4.0,4.0,4.0,0.0,4.0,2.0,4.0,4.0,4.0,4.0
68.0,0.0,4168.71794871795,4135.897435897437,4165.641025641027,4189.743589743592,4188.20512820513,4163.589743589745,4184.615384615386,4175.384615384617,4180.000000000002,4185.128205128207,4173.333333333335,4210.256410256412,4184.615384615386,4179.487179487181,0.0,2047.0,2048.0,0.0,0.0,4.0,4.0,4.0,4.0,0.0,4.0,4.0,4.0,4.0,0.0,4.0,2.0,4.0,4.0,4.0,4.0
69.0,0.0,4169.23076923077,4137.435897435899,4191.282051282053,4187.179487179489,4198.46153846154,4175.897435897437,4202.051282051283,4186.666666666668,4191.794871794873,4185.128205128207,4171.282051282053,4214.3589743589755,4184.102564102565,4172.307692307694,781.0,2047.0,2048.0,0.0,0.0,4.0,4.0,4.0,4.0,0.0,4.0,4.0,4.0,4.0,0.0,4.0,2.0,4.0,4.0,4.0,4.0
70.0,0.0,4164.102564102565,4134.3589743589755,4177.94871794872,4192.8205128205145,4187.179487179489,4184.102564102565,4203.589743589745,4203.589743589745,4200.512820512822,4185.128205128207,4168.71794871795,4211.282051282053,4177.94871794872,4172.307692307694,797.0,2047.0,2048.0,0.0,0.0,4.0,4.0,4.0,4.0,0.0,4.0,4.0,4.0,4.0,0.0,4.0,2.0,4.0,4.0,4.0,4.0
71.0,0.0,4176.410256410258,4141.0256410256425,4176.923076923078,4200.512820512822,4184.102564102565,4180.000000000002,4191.794871794873,4200.000000000002,4191.282051282053,4185.128205128207,4177.94871794872,4215.897435897437,4180.000000000002,4184.615384615386,797.0,2047.0,2048.0,0.0,0.0,4.0,4.0,4.0,4.0,0.0,4.0,4.0,4.0,4.0,0.0,4.0,2.0,4.0,4.0,4.0,4.0
72.0,0.0,4194.3589743589755,4155.897435897437,4200.000000000002,4202.564102564104,4190.256410256412,4172.8205128205145,4184.102564102565,4189.743589743592,4184.615384615386,4185.128205128207,4189.743589743592,4213.846153846155,4198.97435897436,4198.97435897436,622.0,2047.0,2048.0,0.0,0.0,4.0,4.0,4.0,4.0,0.0,4.0,4.0,4.0,4.0,0.0,4.0,2.0,4.0,4.0,4.0,4.0
73.0,0.0,4190.769230769232,4158.46153846154,4202.051282051283,4203.589743589745,4190.769230769232,4170.256410256412,4185.641025641027,4193.846153846155,4187.179487179489,4185.128205128207,4186.153846153848,4211.794871794873,4202.564102564104,4196.923076923078,0.0,2047.0,2048.0,0.0,0.0,4.0,4.0,4.0,4.0,0.0,4.0,4.0,4.0,4.0,0.0,4.0,2.0,4.0,4.0,4.0,4.0
74.0,0.0,4177.94871794872,4146.153846153848,4179.487179487181,4199.487179487181,4182.564102564104,4168.71794871795,4185.128205128207,4205.128205128207,4191.282051282053,4185.128205128207,4176.923076923078,4215.384615384617,4187.692307692309,4185.641025641027,859.0,2047.0,2048.0,0.0,0.0,4.0,4.0,4.0,4.0,0.0,4.0,4.0,4.0,4.0,0.0,4.0,2.0,4.0,4.0,4.0,4.0
75.0,0.0,4179.487179487181,4144.615384615386,4177.94871794872,4194.3589743589755,4182.564102564104,4167.179487179489,4187.179487179489,4199.487179487181,4191.794871794873,4185.128205128207,4173.333333333335,4212.307692307694,4186.666666666668,4186.153846153848,847.0,2047.0,2048.0,0.0,0.0,4.0,4.0,4.0,4.0,0.0,4.0,4.0,4.0,4.0,0.0,4.0,2.0,4.0,4.0,4.0,4.0
76.0,0.0,4193.846153846155,4154.3589743589755,4202.564102564104,4200.512820512822,4190.769230769232,4166.153846153848,4188.20512820513,4182.564102564104,4190.256410256412,4185.128205128207,4183.589743589745,4216.410256410258,4202.051282051283,4200.512820512822,853.0,2047.0,2048.0,0.0,0.0,4.0,4.0,4.0,4.0,0.0,4.0,4.0,4.0,4.0,0.0,4.0,2.0,4.0,4.0,4.0,4.0
77.0,0.0,4198.97435897436,4154.871794871797,4202.051282051283,4202.564102564104,4187.179487179489,4168.71794871795,4185.128205128207,4186.666666666668,4194.3589743589755,4185.128205128207,4189.743589743592,4215.384615384617,4203.589743589745,4204.102564102565,186.0,2047.0,2048.0,0.0,0.0,4.0,4.0,4.0,4.0,0.0,4.0,4.0,4.0,4.0,0.0,4.0,2.0,4.0,4.0,4.0,4.0
78.0,0.0,4195.897435897437,4151.282051282053,4189.743589743592,4198.97435897436,4184.102564102565,4176.410256410258,4188.71794871795,4200.000000000002,4201.0256410256425,4185.128205128207,4176.410256410258,4211.282051282053,4193.333333333335,4195.897435897437,859.0,2047.0,2048.0,0.0,0.0,4.0,4.0,4.0,4.0,0.0,4.0,4.0,4.0,4.0,0.0,4.0,2.0,4.0,4.0,4.0,4.0
79.0,0.0,4200.512820512822,4156.410256410258,4200.000000000002,4204.102564102565,4187.692307692309,4175.897435897437,4189.743589743592,4192.307692307694,4197.94871794872,4185.128205128207,4174.871794871797,4214.3589743589755,4201.0256410256425,4200.000000000002,847.0,2047.0,2048.0,0.0,0.0,4.0,4.0,4.0,4.0,0.0,4.0,4.0,4.0,4.0,0.0,4.0,2.0,4.0,4.0,4.0,4.0
80.0,0.0,4197.94871794872,4157.94871794872,4205.128205128207,4207.179487179489,4185.641025641027,4177.94871794872,4189.23076923077,4186.666666666668,4192.8205128205145,4185.128205128207,4183.589743589745,4211.794871794873,4202.564102564104,4203.076923076925,853.0,2047.0,2048.0,0.0,0.0,4.0,4.0,4.0,4.0,0.0,4.0,4.0,4.0,4.0,0.0,4.0,2.0,4.0,4.0,4.0,4.0
81.0,0.0,4188.71794871795,4152.307692307694,4193.333333333335,4201.0256410256425,4183.076923076925,4182.564102564104,4191.794871794873,4196.410256410258,4196.410256410258,4185.128205128207,4180.000000000002,4211.794871794873,4193.846153846155,4198.97435897436,186.0,2047.0,2048.0,0.0,0.0,4.0,4.0,4.0,4.0,0.0,4.0,4.0,4.0,4.0,0.0,4.0,2.0,4.0,4.0,4.0,4.0
82.0,0.0,4193.846153846155,4159.487179487181,4192.307692307694,4198.97435897436,4182.564102564104,4172.8205128205145,4188.71794871795,4197.94871794872,4202.051282051283,4185.128205128207,4188.20512820513,4215.384615384617,4209.23076923077,4205.641025641027,859.0,2047.0,2048.0,0.0,0.0,4.0,4.0,4.0,4.0,0.0,4.0,4.0,4.0,4.0,0.0,4.0,2.0,4.0,4.0,4.0,4.0
83.0,0.0,4195.897435897437,4167.692307692309,4201.538461538463,4200.512820512822,4186.666666666668,4169.743589743592,4191.794871794873,4197.435897435899,4202.051282051283,4185.128205128207,4201.0256410256425,4216.923076923078,4217.94871794872,4208.20512820513,847.0,2047.0,2048.0,0.0,0.0,4.0,4.0,4.0,4.0,0.0,4.0,4.0,4.0,4.0,0.0,4.0,2.0,4.0,4.0,4.0,4.0
84.0,0.0,4186.153846153848,4163.589743589745,4192.8205128205145,4196.923076923078,4185.128205128207,4183.589743589745,4201.0256410256425,4201.538461538463,4200.000000000002,4185.128205128207,4190.256410256412,4215.897435897437,4200.512820512822,4198.46153846154,853.0,2047.0,2048.0,0.0,0.0,4.0,4.0,4.0,4.0,0.0,4.0,4.0,4.0,4.0,0.0,4.0,2.0,4.0,4.0,4.0,4.0
85.0,0.0,4187.692307692309,4162.051282051283,4183.589743589745,4198.97435897436,4180.512820512822,4186.666666666668,4201.538461538463,4200.512820512822,4204.102564102565,4185.128205128207,4181.0256410256425,4211.794871794873,4196.410256410258,4196.410256410258,186.0,2047.0,2048.0,0.0,0.0,4.0,4.0,4.0,4.0,0.0,4.0,4.0,4.0,4.0,0.0,4.0,2.0,4.0,4.0,4.0,4.0
86.0,0.0,4194.871794871797,4170.256410256412,4194.871794871797,4203.076923076925,4187.692307692309,4180.512820512822,4198.46153846154,4198.46153846154,4205.128205128207,4185.128205128207,4184.102564102565,4213.846153846155,4200.000000000002,4196.923076923078,859.0,2047.0,2048.0,0.0,0.0,4.0,4.0,4.0,4.0,0.0,4.0,4.0,4.0,4.0,0.0,4.0,2.0,4.0,4.0,4.0,4.0
87.0,0.0,4193.333333333335,4177.435897435899,4200.000000000002,4200.512820512822,4188.71794871795,4185.128205128207,4201.0256410256425,4200.512820512822,4202.564102564104,4185.128205128207,4181.538461538463,4212.307692307694,4193.846153846155,4197.94871794872,847.0,2047.0,2048.0,0.0,0.0,4.0,4.0,4.0,4.0,0.0,4.0,4.0,4.0,4.0,0.0,4.0,2.0,4.0,4.0,4.0,4.0
88.0,0.0,4193.333333333335,4178.97435897436,4193.846153846155,4195.897435897437,4184.615384615386,4186.153846153848,4202.051282051283,4203.589743589745,4207.179487179489,4184.615384615386,4182.051282051283,4213.333333333335,4195.897435897437,4206.666666666668,853.0,2047.0,2048.0,0.0,0.0,4.0,4.0,4.0,4.0,0.0,4.0,4.0,4.0,4.0,0.0,4.0,2.0,4.0,4.0,4.0,4.0
89.0,0.0,4199.487179487181,4190.256410256412,4189.743589743592,4199.487179487181,4184.102564102565,4184.615384615386,4199.487179487181,4207.179487179489,4208.71794871795,4185.128205128207,4191.282051282053,4218.97435897436,4202.051282051283,4212.8205128205145,186.0,2047.0,2048.0,0.0,0.0,4.0,4.0,4.0,4.0,0.0,4.0,4.0,4.0,4.0,0.0,4.0,2.0,4.0,4.0,4.0,4.0
90.0,0.0,4204.102564102565,4202.051282051283,4191.282051282053,4202.564102564104,4182.051282051283,4184.615384615386,4195.897435897437,4201.538461538463,4203.589743589745,4185.128205128207,4189.743589743592,4214.871794871797,4197.435897435899,4209.23076923077,859.0,2047.0,2048.0,0.0,0.0,4.0,4.0,4.0,4.0,0.0,4.0,4.0,4.0,4.0,0.0,4.0,2.0,4.0,4.0,4.0,4.0
91.0,0.0,4204.615384615386,4194.3589743589755,4206.153846153848,4192.8205128205145,4188.20512820513,4182.051282051283,4197.94871794872,4195.897435897437,4207.692307692309,4184.102564102565,4178.97435897436,4213.333333333335,4193.333333333335,4204.615384615386,847.0,2047.0,2048.0,0.0,0.0,4.0,4.0,4.0,4.0,0.0,4.0,4.0,4.0,4.0,0.0,4.0,2.0,4.0,4.0,4.0,4.0
92.0,0.0,4198.97435897436,4190.256410256412,4203.589743589745,4187.692307692309,4190.256410256412,4185.128205128207,4206.153846153848,4204.102564102565,4212.8205128205145,4185.128205128207,4180.512820512822,4212.307692307694,4197.94871794872,4202.564102564104,853.0,2047.0,2048.0,0.0,0.0,4.0,4.0,4.0,4.0,0.0,4.0,4.0,4.0,4.0,0.0,4.0,2.0,4.0,4.0,4.0,4.0
93.0,0.0,4194.871794871797,4205.128205128207,4180.000000000002,4192.307692307694,4185.641025641027,4182.564102564104,4197.94871794872,4200.000000000002,4203.589743589745,4185.641025641027,4184.615384615386,4210.256410256412,4198.97435897436,4201.0256410256425,186.0,2047.0,2048.0,0.0,0.0,4.0,4.0,4.0,4.0,0.0,4.0,4.0,4.0,4.0,0.0,4.0,2.0,4.0,4.0,4.0,4.0
94.0,0.0,4188.71794871795,4210.256410256412,4175.897435897437,4187.692307692309,4183.589743589745,4171.794871794873,4182.564102564104,4185.128205128207,4196.410256410258,4185.641025641027,4174.871794871797,4213.846153846155,4185.128205128207,4193.333333333335,859.0,2047.0,2048.0,0.0,0.0,4.0,4.0,4.0,4.0,0.0,4.0,4.0,4.0,4.0,0.0,4.0,2.0,4.0,4.0,4.0,4.0
95.0,0.0,4175.384615384617,4197.435897435899,4180.512820512822,4175.897435897437,4183.589743589745,4169.23076923077,4185.641025641027,4189.23076923077,4200.512820512822,4184.615384615386,4164.102564102565,4211.282051282053,4171.282051282053,4182.564102564104,847.0,2047.0,2048.0,0.0,0.0,4.0,4.0,4.0,4.0,0.0,4.0,4.0,4.0,4.0,0.0,4.0,2.0,4.0,4.0,4.0,4.0
96.0,0.0,4180.512820512822,4206.666666666668,4187.692307692309,4181.538461538463,4185.641025641027,4173.333333333335,4193.846153846155,4198.46153846154,4203.589743589745,4184.615384615386,4170.256410256412,4215.384615384617,4178.97435897436,4188.71794871795,853.0,2047.0,2048.0,0.0,0.0,4.0,4.0,4.0,4.0,0.0,4.0,4.0,4.0,4.0,0.0,4.0,2.0,4.0,4.0,4.0,4.0
97.0,0.0,4196.923076923078,4227.692307692309,4194.871794871797,4194.871794871797,4184.615384615386,4171.794871794873,4189.23076923077,4189.743589743592,4201.0256410256425,4185.641025641027,4174.3589743589755,4216.410256410258,4186.153846153848,4199.487179487181,186.0,2047.0,2048.0,0.0,0.0,4.0,4.0,4.0,4.0,0.0,4.0,4.0,4.0,4.0,0.0,4.0,2.0,4.0,4.0,4.0,4.0
98.0,0.0,4195.897435897437,4226.666666666668,4193.846153846155,4190.256410256412,4184.615384615386,4168.71794871795,4184.102564102565,4182.051282051283,4197.435897435899,4187.179487179489,4170.256410256412,4210.256410256412,4181.0256410256425,4197.435897435899,859.0,2047.0,2048.0,0.0,0.0,4.0,4.0,4.0,4.0,0.0,4.0,4.0,4.0,4.0,0.0,4.0,2.0,4.0,4.0,4.0,4.0
99.0,0.0,4195.384615384617,4218.46153846154,4191.794871794873,4185.641025641027,4186.666666666668,4168.71794871795,4186.153846153848,4186.666666666668,4198.46153846154,4186.666666666668,4172.307692307694,4215.384615384617,4185.128205128207,4195.897435897437,847.0,2047.0,2048.0,0.0,0.0,4.0,4.0,4.0,4.0,0.0,4.0,4.0,4.0,4.0,0.0,4.0,2.0,4.0,4.0,4.0,4.0
100.0,0.0,4195.897435897437,4216.923076923078,4187.692307692309,4187.692307692309,4183.589743589745,4167.179487179489,4187.179487179489,4187.179487179489,4200.000000000002,4185.641025641027,4172.307692307694,4215.897435897437,4189.23076923077,4192.307692307694,853.0,2047.0,2048.0,0.0,0.0,4.0,4.0,4.0,4.0,0.0,4.0,4.0,4.0,4.0,0.0,4.0,2.0,4.0,4.0,4.0,4.0
101.0,0.0,4189.743589743592,4218.97435897436,4186.666666666668,4188.71794871795,4184.615384615386,4168.71794871795,4185.641025641027,4185.641025641027,4197.435897435899,4185.641025641027,4169.23076923077,4213.846153846155,4182.564102564104,4184.102564102565,186.0,2047.0,2048.0,0.0,0.0,4.0,4.0,4.0,4.0,0.0,4.0,4.0,4.0,4.0,0.0,4.0,2.0,4.0,4.0,4.0,4.0
102.0,0.0,4187.692307692309,4218.97435897436,4184.615384615386,4186.153846153848,4185.641025641027,4166.666666666668,4183.076923076925,4183.589743589745,4193.333333333335,4185.128205128207,4169.743589743592,4212.307692307694,4183.589743589745,4185.128205128207,859.0,2047.0,2048.0,0.0,0.0,4.0,4.0,4.0,4.0,0.0,4.0,4.0,4.0,4.0,0.0,4.0,2.0,4.0,4.0,4.0,4.0
103.0,0.0,4191.282051282053,4218.97435897436,4185.641025641027,4184.615384615386,4185.128205128207,4157.435897435899,4181.0256410256425,4177.435897435899,4192.8205128205145,4184.102564102565,4174.3589743589755,4206.666666666668,4194.871794871797,4193.846153846155,847.0,2047.0,2048.0,0.0,0.0,4.0,4.0,4.0,4.0,0.0,4.0,4.0,4.0,4.0,0.0,4.0,2.0,4.0,4.0,4.0,4.0
104.0,0.0,4193.333333333335,4220.000000000002,4194.871794871797,4186.153846153848,4187.692307692309,4156.923076923078,4185.641025641027,4180.512820512822,4197.94871794872,4184.102564102565,4180.000000000002,4211.282051282053,4203.076923076925,4198.97435897436,853.0,2047.0,2048.0,0.0,0.0,4.0,4.0,4.0,4.0,0.0,4.0,4.0,4.0,4.0,0.0,4.0,2.0,4.0,4.0,4.0,4.0
105.0,0.0,4198.46153846154,4226.153846153848,4194.871794871797,4192.8205128205145,4183.076923076925,4162.564102564104,4188.20512820513,4192.307692307694,4203.589743589745,4184.615384615386,4191.282051282053,4216.410256410258,4211.794871794873,4205.128205128207,186.0,2047.0,2048.0,0.0,0.0,4.0,4.0,4.0,4.0,0.0,4.0,4.0,4.0,4.0,0.0,4.0,2.0,4.0,4.0,4.0,4.0
106.0,0.0,4205.641025641027,4232.8205128205145,4195.384615384617,4197.94871794872,4182.564102564104,4159.487179487181,4185.128205128207,4191.282051282053,4200.512820512822,4185.641025641027,4198.46153846154,4221.538461538463,4214.3589743589755,4208.71794871795,859.0,2047.0,2048.0,0.0,0.0,4.0,4.0,4.0,4.0,0.0,4.0,4.0,4.0,4.0,0.0,4.0,2.0,4.0,4.0,4.0,4.0
107.0,0.0,4202.051282051283,4222.564102564104,4202.564102564104,4190.256410256412,4189.23076923077,4154.871794871797,4182.051282051283,4180.512820512822,4192.307692307694,4186.153846153848,4184.102564102565,4220.000000000002,4203.589743589745,4200.000000000002,847.0,2047.0,2048.0,0.0,0.0,4.0,4.0,4.0,4.0,0.0,4.0,4.0,4.0,4.0,0.0,4.0,2.0,4.0,4.0,4.0,4.0
108.0,0.0,4194.3589743589755,4207.179487179489,4204.615384615386,4182.564102564104,4190.256410256412,4153.333333333335,4177.94871794872,4176.410256410258,4192.8205128205145,4185.641025641027,4172.8205128205145,4210.256410256412,4207.179487179489,4191.282051282053,853.0,2047.0,2048.0,0.0,0.0,4.0,4.0,4.0,4.0,0.0,4.0,4.0,4.0,4.0,0.0,4.0,2.0,4.0,4.0,4.0,4.0
109.0,0.0,4190.256410256412,4204.102564102565,4181.0256410256425,4184.615384615386,4180.000000000002,4155.384615384617,4171.282051282053,4181.0256410256425,4194.3589743589755,4186.153846153848,4177.94871794872,4214.3589743589755,4218.46153846154,4189.23076923077,186.0,2047.0,2048.0,0.0,0.0,4.0,4.0,4.0,4.0,0.0,4.0,4.0,4.0,4.0,0.0,4.0,2.0,4.0,4.0,4.0,4.0
110.0,0.0,4180.000000000002,4200.512820512822,4134.871794871797,4182.564102564104,4166.153846153848,4165.128205128207,4171.282051282053,4187.692307692309,4187.179487179489,4186.153846153848,4173.846153846155,4214.3589743589755,4196.923076923078,4184.102564102565,859.0,2047.0,2048.0,0.0,0.0,4.0,4.0,4.0,4.0,0.0,4.0,4.0,4.0,4.0,0.0,4.0,2.0,4.0,4.0,4.0,4.0
111.0,0.0,4184.102564102565,4193.333333333335,4153.846153846155,4177.435897435899,4178.97435897436,4165.641025641027,4176.410256410258,4184.615384615386,4181.0256410256425,4185.128205128207,4170.769230769232,4211.282051282053,4184.615384615386,4185.128205128207,847.0,2047.0,2048.0,0.0,0.0,4.0,4.0,4.0,4.0,0.0,4.0,4.0,4.0,4.0,0.0,4.0,2.0,4.0,4.0,4.0,4.0
112.0,0.0,4200.000000000002,4199.487179487181,4233.333333333335,4187.692307692309,4203.076923076925,4154.871794871797,4183.076923076925,4182.564102564104,4186.153846153848,4185.128205128207,4185.641025641027,4215.897435897437,4213.333333333335,4200.000000000002,853.0,2047.0,2048.0,0.0,0.0,4.0,4.0,4.0,4.0,0.0,4.0,4.0,4.0,4.0,0.0,4.0,2.0,4.0,4.0,4.0,4.0
113.0,0.0,4190.769230769232,4198.97435897436,4233.333333333335,4189.743589743592,4196.410256410258,4154.871794871797,4188.20512820513,4186.153846153848,4187.692307692309,4185.128205128207,4178.46153846154,4209.23076923077,4211.282051282053,4193.846153846155,186.0,2047.0,2048.0,0.0,0.0,4.0,4.0,4.0,4.0,0.0,4.0,4.0,4.0,4.0,0.0,4.0,2.0,4.0,4.0,4.0,4.0
114.0,0.0,4173.846153846155,4183.589743589745,4154.871794871797,4173.333333333335,4175.897435897437,4156.410256410258,4173.333333333335,4178.46153846154,4180.000000000002,4184.615384615386,4156.410256410258,4205.128205128207,4182.051282051283,4174.871794871797,859.0,2047.0,2048.0,0.0,0.0,4.0,4.0,4.0,4.0,0.0,4.0,4.0,4.0,4.0,0.0,4.0,2.0,4.0,4.0,4.0,4.0
115.0,0.0,4183.076923076925,4188.20512820513,4135.897435897437,4173.333333333335,4171.794871794873,4147.692307692309,4158.46153846154,4172.8205128205145,4184.102564102565,4184.615384615386,4171.794871794873,4208.20512820513,4198.46153846154,4185.641025641027,847.0,2047.0,2048.0,0.0,0.0,4.0,4.0,4.0,4.0,0.0,4.0,4.0,4.0,4.0,0.0,4.0,2.0,4.0,4.0,4.0,4.0
116.0,0.0,4193.846153846155,4205.641025641027,4191.794871794873,4189.23076923077,4191.282051282053,4156.410256410258,4185.128205128207,4193.333333333335,4198.97435897436,4186.153846153848,4185.641025641027,4211.794871794873,4211.794871794873,4198.46153846154,853.0,2047.0,2048.0,0.0,0.0,4.0,4.0,4.0,4.0,0.0,4.0,4.0,4.0,4.0,0.0,4.0,2.0,4.0,4.0,4.0,4.0
117.0,0.0,4184.615384615386,4195.897435897437,4215.384615384617,4189.743589743592,4202.051282051283,4174.871794871797,4208.71794871795,4205.128205128207,4201.538461538463,4186.153846153848,4174.3589743589755,4213.333333333335,4188.71794871795,4188.71794871795,186.0,2047.0,2048.0,0.0,0.0,4.0,4.0,4.0,4.0,0.0,4.0,4.0,4.0,4.0,0.0,4.0,2.0,4.0,4.0,4.0,4.0
118.0,0.0,4181.538461538463,4181.538461538463,4187.692307692309,4178.97435897436,4189.23076923077,4166.153846153848,4183.076923076925,4186.153846153848,4191.794871794873,4185.128205128207,4172.8205128205145,4212.307692307694,4189.23076923077,4186.666666666668,859.0,2047.0,2048.0,0.0,0.0,4.0,4.0,4.0,4.0,0.0,4.0,4.0,4.0,4.0,0.0,4.0,2.0,4.0,4.0,4.0,4.0
119.0,0.0,4187.692307692309,4187.692307692309,4173.333333333335,4174.3589743589755,4181.0256410256425,4149.23076923077,4162.564102564104,4177.435897435899,4189.743589743592,4185.128205128207,4179.487179487181,4216.923076923078,4206.153846153848,4195.384615384617,847.0,2047.0,2048.0,0.0,0.0,4.0,4.0,4.0,4.0,0.0,4.0,4.0,4.0,4.0,0.0,4.0,2.0,4.0,4.0,4.0,4.0
120.0,0.0,4182.051282051283,4184.615384615386,4172.8205128205145,4170.256410256412,4180.512820512822,4154.871794871797,4177.94871794872,4186.153846153848,4193.333333333335,4185.641025641027,4171.794871794873,4213.333333333335,4197.435897435899,4191.282051282053,853.0,2047.0,2048.0,0.0,0.0,4.0,4.0,4.0,4.0,0.0,4.0,4.0,4.0,4.0,0.0,4.0,2.0,4.0,4.0,4.0,4.0
121.0,0.0,4179.487179487181,4178.97435897436,4180.000000000002,4174.871794871797,4184.102564102565,4171.794871794873,4190.769230769232,4186.666666666668,4189.23076923077,4185.641025641027,4167.179487179489,4209.743589743592,4182.051282051283,4183.589743589745,186.0,2047.0,2048.0,0.0,0.0,4.0,4.0,4.0,4.0,0.0,4.0,4.0,4.0,4.0,0.0,4.0,2.0,4.0,4.0,4.0,4.0
122.0,0.0,4193.333333333335,4194.3589743589755,4202.051282051283,4186.153846153848,4189.743589743592,4172.8205128205145,4188.71794871795,4184.102564102565,4185.641025641027,4185.128205128207,4181.538461538463,4215.897435897437,4187.692307692309,4191.794871794873,859.0,2047.0,2048.0,0.0,0.0,4.0,4.0,4.0,4.0,0.0,4.0,4.0,4.0,4.0,0.0,4.0,2.0,4.0,4.0,4.0,4.0
123.0,0.0,4193.333333333335,4197.94871794872,4207.179487179489,4184.102564102565,4189.23076923077,4166.666666666668,4185.128205128207,4184.615384615386,4192.8205128205145,4185.128205128207,4186.153846153848,4213.846153846155,4199.487179487181,4201.538461538463,847.0,2047.0,2048.0,0.0,0.0,4.0,4.0,4.0,4.0,0.0,4.0,4.0,4.0,4.0,0.0,4.0,2.0,4.0,4.0,4.0,4.0
124.0,0.0,4186.666666666668,4186.153846153848,4190.256410256412,4183.076923076925,4184.102564102565,4167.179487179489,4181.538461538463,4183.589743589745,4197.435897435899,4185.128205128207,4173.846153846155,4214.3589743589755,4198.46153846154,4197.94871794872,853.0,2047.0,2048.0,0.0,0.0,4.0,4.0,4.0,4.0,0.0,4.0,4.0,4.0,4.0,0.0,4.0,2.0,4.0,4.0,4.0,4.0
125.0,0.0,4196.923076923078,4195.897435897437,4182.564102564104,4189.743589743592,4177.94871794872,4169.23076923077,4182.564102564104,4185.128205128207,4192.307692307694,4185.128205128207,4168.20512820513,4212.8205128205145,4188.71794871795,4192.307692307694,186.0,2047.0,2048.0,0.0,0.0,4.0,4.0,4.0,4.0,0.0,4.0,4.0,4.0,4.0,0.0,4.0,2.0,4.0,4.0,4.0,4.0
126.0,0.0,4199.487179487181,4209.23076923077,4192.8205128205145,4188.20512820513,4184.102564102565,4167.692307692309,4184.102564102565,4186.153846153848,4192.8205128205145,4185.128205128207,4171.794871794873,4209.23076923077,4181.0256410256425,4190.256410256412,859.0,2047.0,2048.0,0.0,0.0,4.0,4.0,4.0,4.0,0.0,4.0,4.0,4.0,4.0,0.0,4.0,2.0,4.0,4.0,4.0,4.0
127.0,0.0,4187.692307692309,4201.0256410256425,4197.94871794872,4183.076923076925,4193.333333333335,4167.179487179489,4181.538461538463,4180.512820512822,4197.435897435899,4185.128205128207,4173.846153846155,4210.769230769232,4182.051282051283,4186.666666666668,847.0,2047.0,2048.0,0.0,0.0,4.0,4.0,4.0,4.0,0.0,4.0,4.0,4.0,4.0,0.0,4.0,2.0,4.0,4.0,4.0,4.0
128.0,0.0,4189.743589743592,4198.97435897436,4187.179487179489,4185.128205128207,4188.71794871795,4167.179487179489,4184.102564102565,4181.0256410256425,4191.282051282053,4185.128205128207,4175.384615384617,4207.179487179489,4185.128205128207,4183.589743589745,853.0,2047.0,2048.0,0.0,0.0,4.0,4.0,4.0,4.0,0.0,4.0,4.0,4.0,4.0,0.0,4.0,2.0,4.0,4.0,4.0,4.0
0.0,0.0,4196.410256410258,4206.666666666668,4180.512820512822,4180.512820512822,4184.102564102565,4167.692307692309,4186.153846153848,4181.0256410256425,4184.102564102565,4185.128205128207,4174.871794871797,4206.666666666668,4181.538461538463,4183.076923076925,678.0,2047.0,2048.0,0.0,0.0,4.0,4.0,4.0,4.0,0.0,4.0,4.0,4.0,4.0,0.0,4.0,2.0,4.0,4.0,4.0,4.0
1.0,0.0,4184.615384615386,4200.000000000002,4175.384615384617,4173.846153846155,4183.076923076925,4167.692307692309,4178.97435897436,4173.846153846155,4187.179487179489,4185.128205128207,4169.23076923077,4208.71794871795,4173.333333333335,4177.435897435899,827.0,2047.0,2048.0,0.0,0.0,4.0,4.0,4.0,4.0,0.0,4.0,4.0,4.0,4.0,0.0,4.0,2.0,4.0,4.0,4.0,4.0
2.0,0.0,4180.000000000002,4195.897435897437,4176.410256410258,4178.46153846154,4185.641025641027,4166.666666666668,4175.384615384617,4175.897435897437,4192.8205128205145,4185.128205128207,4175.384615384617,4209.743589743592,4175.897435897437,4178.46153846154,804.0,2047.0,2048.0,0.0,0.0,4.0,4.0,4.0,4.0,0.0,4.0,4.0,4.0,4.0,0.0,4.0,2.0,4.0,4.0,4.0,4.0
3.0,0.0,4196.923076923078,4211.794871794873,4192.8205128205145,4188.71794871795,4185.641025641027,4168.71794871795,4181.538461538463,4184.615384615386,4197.94871794872,4185.128205128207,4186.153846153848,4215.897435897437,4191.282051282053,4189.743589743592,785.0,2047.0,2048.0,0.0,0.0,4.0,4.0,4.0,4.0,0.0,4.0,4.0,4.0,4.0,0.0,4.0,2.0,4.0,4.0,4.0,4.0
4.0,0.0,4200.512820512822,4215.897435897437,4195.384615384617,4185.641025641027,4182.051282051283,4171.794871794873,4184.615384615386,4186.153846153848,4198.97435897436,4185.128205128207,4185.128205128207,4211.282051282053,4197.435897435899,4192.8205128205145,0.0,2047.0,2048.0,0.0,0.0,4.0,4.0,4.0,4.0,0.0,4.0,4.0,4.0,4.0,0.0,4.0,2.0,4.0,4.0,4.0,4.0
5.0,0.0,4191.282051282053,4202.564102564104,4187.692307692309,4172.307692307694,4188.71794871795,4170.769230769232,4184.102564102565,4184.102564102565,4198.46153846154,4185.128205128207,4179.487179487181,4208.20512820513,4191.794871794873,4185.128205128207,778.0,2047.0,2048.0,0.0,0.0,4.0,4.0,4.0,4.0,0.0,4.0,4.0,4.0,4.0,0.0,4.0,2.0,4.0,4.0,4.0,4.0
6.0,0.0,4192.307692307694,4204.102564102565,4186.666666666668,4172.8205128205145,4190.256410256412,4171.282051282053,4192.8205128205145,4187.692307692309,4202.051282051283,4185.128205128207,4181.0256410256425,4211.282051282053,4192.307692307694,4188.20512820513,797.0,2047.0,2048.0,0.0,0.0,4.0,4.0,4.0,4.0,0.0,4.0,4.0,4.0,4.0,0.0,4.0,2.0,4.0,4.0,4.0,4.0
7.0,0.0,4201.538461538463,4215.897435897437,4191.282051282053,4185.128205128207,4184.102564102565,4170.256410256412,4199.487179487181,4190.769230769232,4203.076923076925,4185.128205128207,4184.102564102565,4211.794871794873,4198.46153846154,4197.435897435899,795.0,2047.0,2048.0,0.0,0.0,4.0,4.0,4.0,4.0,0.0,4.0,4.0,4.0,4.0,0.0,4.0,2.0,4.0,4.0,4.0,4.0
8.0,0.0,4207.692307692309,4218.97435897436,4193.846153846155,4189.23076923077,4183.076923076925,4170.769230769232,4197.94871794872,4197.435897435899,4209.23076923077,4185.128205128207,4186.666666666668,4216.410256410258,4202.564102564104,4202.051282051283,622.0,2047.0,2048.0,0.0,0.0,4.0,4.0,4.0,4.0,0.0,4.0,4.0,4.0,4.0,0.0,4.0,2.0,4.0,4.0,4.0,4.0
9.0,0.0,4201.538461538463,4214.3589743589755,4182.564102564104,4183.076923076925,4181.0256410256425,4173.846153846155,4198.97435897436,4200.512820512822,4216.410256410258,4185.128205128207,4187.179487179489,4212.8205128205145,4203.076923076925,4201.0256410256425,0.0,2047.0,2048.0,0.0,0.0,4.0,4.0,4.0,4.0,0.0,4.0,4.0,4.0,4.0,0.0,4.0,2.0,4.0,4.0,4.0,4.0
10.0,0.0,4191.282051282053,4209.23076923077,4186.666666666668,4182.564102564104,4187.179487179489,4173.333333333335,4203.076923076925,4189.23076923077,4206.666666666668,4185.128205128207,4183.076923076925,4209.23076923077,4200.512820512822,4193.846153846155,859.0,2047.0,2048.0,0.0,0.0,4.0,4.0,4.0,4.0,0.0,4.0,4.0,4.0,4.0,0.0,4.0,2.0,4.0,4.0,4.0,4.0
11.0,0.0,4192.307692307694,4206.666666666668,4198.97435897436,4182.564102564104,4192.8205128205145,4170.256410256412,4199.487179487181,4183.589743589745,4198.46153846154,4185.128205128207,4188.71794871795,4212.307692307694,4200.000000000002,4193.333333333335,847.0,2047.0,2048.0,0.0,0.0,4.0,4.0,4.0,4.0,0.0,4.0,4.0,4.0,4.0,0.0,4.0,2.0,4.0,4.0,4.0,4.0
12.0,0.0,4204.102564102565,4213.846153846155,4192.8205128205145,4183.589743589745,4185.128205128207,4171.282051282053,4196.923076923078,4194.3589743589755,4211.282051282053,4185.128205128207,4203.589743589745,4213.333333333335,4209.23076923077,4204.615384615386,851.0,2047.0,2048.0,0.0,0.0,4.0,4.0,4.0,4.0,0.0,4.0,4.0,4.0,4.0,0.0,4.0,2.0,4.0,4.0,4.0,4.0
13.0,0.0,4211.794871794873,4222.051282051283,4191.282051282053,4197.94871794872,4183.589743589745,4177.435897435899,4198.97435897436,4201.538461538463,4214.871794871797,4185.128205128207,4205.128205128207,4218.97435897436,4218.97435897436,4212.8205128205145,186.0,2047.0,2048.0,0.0,0.0,4.0,4.0,4.0,4.0,0.0,4.0,4.0,4.0,4.0,0.0,4.0,2.0,4.0,4.0,4.0,4.0
14.0,0.0,4201.538461538463,4211.794871794873,4199.487179487181,4198.97435897436,4189.743589743592,4181.538461538463,4204.615384615386,4198.97435897436,4206.153846153848,4185.128205128207,4190.256410256412,4215.897435897437,4210.256410256412,4198.97435897436,859.0,2047.0,2048.0,0.0,0.0,4.0,4.0,4.0,4.0,0.0,4.0,4.0,4.0,4.0,0.0,4.0,2.0,4.0,4.0,4.0,4.0
15.0,0.0,4192.307692307694,4206.666666666668,4202.051282051283,4188.20512820513,4190.769230769232,4184.615384615386,4207.179487179489,4198.97435897436,4206.153846153848,4185.128205128207,4187.179487179489,4211.794871794873,4198.46153846154,4188.20512820513,847.0,2047.0,2048.0,0.0,0.0,4.0,4.0,4.0,4.0,0.0,4.0,4.0,4.0,4.0,0.0,4.0,2.0,4.0,4.0,4.0,4.0
16.0,0.0,4195.384615384617,4214.871794871797,4194.871794871797,4191.282051282053,4186.153846153848,4187.692307692309,4203.076923076925,4204.102564102565,4209.23076923077,4185.128205128207,4190.769230769232,4215.384615384617,4193.333333333335,4194.871794871797,0.0,2047.0,2048.0,0.0,0.0,4.0,4.0,4.0,4.0,0.0,4.0,4.0,4.0,4.0,0.0,4.0,2.0,4.0,4.0,4.0,4.0
17.0,0.0,4201.538461538463,4217.94871794872,4196.923076923078,4202.564102564104,4186.153846153848,4184.615384615386,4202.564102564104,4204.102564102565,4206.153846153848,4185.128205128207,4188.20512820513,4214.3589743589755,4196.410256410258,4196.923076923078,0.0,2047.0,2048.0,0.0,0.0,4.0,4.0,4.0,4.0,0.0,4.0,4.0,4.0,4.0,0.0,4.0,2.0,4.0,4.0,4.0,4.0
18.0,0.0,4207.179487179489,4217.94871794872,4206.666666666668,4203.589743589745,4188.71794871795,4173.333333333335,4194.3589743589755,4193.846153846155,4201.0256410256425,4185.128205128207,4185.641025641027,4214.871794871797,4198.97435897436,4191.282051282053,0.0,2047.0,2048.0,0.0,0.0,4.0,4.0,4.0,4.0,0.0,4.0,4.0,4.0,4.0,0.0,4.0,2.0,4.0,4.0,4.0,4.0
19.0,0.0,4196.923076923078,4213.333333333335,4193.333333333335,4195.897435897437,4185.641025641027,4165.128205128207,4183.076923076925,4187.692307692309,4199.487179487181,4185.128205128207,4181.0256410256425,4208.71794871795,4186.153846153848,4184.615384615386,0.0,2047.0,2048.0,0.0,0.0,4.0,4.0,4.0,4.0,0.0,4.0,4.0,4.0,4.0,0.0,4.0,2.0,4.0,4.0,4.0,4.0
20.0,0.0,4186.153846153848,4204.102564102565,4185.641025641027,4189.743589743592,4186.666666666668,4167.692307692309,4185.128205128207,4186.666666666668,4198.46153846154,4185.128205128207,4179.487179487181,4207.692307692309,4182.051282051283,4184.615384615386,0.0,2047.0,2048.0,0.0,0.0,4.0,4.0,4.0,4.0,0.0,4.0,4.0,4.0,4.0,0.0,4.0,2.0,4.0,4.0,4.0,4.0
21.0,0.0,4195.384615384617,4199.487179487181,4197.435897435899,4188.71794871795,4187.179487179489,4167.179487179489,4188.71794871795,4182.564102564104,4198.46153846154,4185.128205128207,4183.589743589745,4217.94871794872,4196.923076923078,4189.743589743592,0.0,2047.0,2048.0,0.0,0.0,4.0,4.0,4.0,4.0,0.0,4.0,4.0,4.0,4.0,0.0,4.0,2.0,4.0,4.0,4.0,4.0
22.0,0.0,4203.076923076925,4198.97435897436,4196.410256410258,4188.20512820513,4184.102564102565,4169.743589743592,4189.743589743592,4186.153846153848,4200.000000000002,4185.128205128207,4179.487179487181,4211.794871794873,4195.384615384617,4189.743589743592,0.0,2047.0,2048.0,0.0,0.0,4.0,4.0,4.0,4.0,0.0,4.0,4.0,4.0,4.0,0.0,4.0,2.0,4.0,4.0,4.0,4.0
23.0,0.0,4190.769230769232,4190.256410256412,4186.153846153848,4183.076923076925,4187.692307692309,4183.076923076925,4197.435897435899,4195.897435897437,4199.487179487181,4184.615384615386,4167.179487179489,4205.128205128207,4170.256410256412,4178.46153846154,0.0,2047.0,2048.0,0.0,0.0,4.0,4.0,4.0,4.0,0.0,4.0,4.0,4.0,4.0,0.0,4.0,2.0,4.0,4.0,4.0,4.0
24.0,0.0,4178.97435897436,4177.435897435899,4179.487179487181,4178.46153846154,4187.179487179489,4187.179487179489,4207.179487179489,4202.051282051283,4201.538461538463,4184.615384615386,4171.282051282053,4207.692307692309,4170.256410256412,4171.282051282053,0.0,2047.0,2048.0,0.0,0.0,4.0,4.0,4.0,4.0,0.0,4.0,4.0,4.0,4.0,0.0,4.0,2.0,4.0,4.0,4.0,4.0
25.0,0.0,4184.102564102565,4177.94871794872,4187.692307692309,4183.589743589745,4185.128205128207,4174.3589743589755,4200.512820512822,4197.94871794872,4204.102564102565,4185.641025641027,4184.615384615386,4213.333333333335,4190.256410256412,4181.538461538463,0.0,2047.0,2048.0,0.0,0.0,4.0,4.0,4.0,4.0,0.0,4.0,4.0,4.0,4.0,0.0,4.0,2.0,4.0,4.0,4.0,4.0
26.0,0.0,4193.333333333335,4183.589743589745,4198.46153846154,4188.20512820513,4185.128205128207,4167.179487179489,4189.743589743592,4189.743589743592,4203.589743589745,4185.641025641027,4188.71794871795,4216.410256410258,4190.769230769232,4189.23076923077,0.0,2047.0,2048.0,0.0,0.0,4.0,4.0,4.0,4.0,0.0,4.0,4.0,4.0,4.0,0.0,4.0,2.0,4.0,4.0,4.0,4.0
27.0,0.0,4192.307692307694,4187.692307692309,4189.743589743592,4186.153846153848,4183.076923076925,4170.769230769232,4184.102564102565,4185.641025641027,4201.538461538463,4184.102564102565,4182.564102564104,4210.769230769232,4183.589743589745,4185.641025641027,0.0,2047.0,2048.0,0.0,0.0,4.0,4.0,4.0,4.0,0.0,4.0,4.0,4.0,4.0,0.0,4.0,2.0,4.0,4.0,4.0,4.0
28.0,0.0,4183.589743589745,4194.871794871797,4183.589743589745,4183.076923076925,4187.692307692309,4169.23076923077,4184.615384615386,4187.179487179489,4201.0256410256425,4184.102564102565,4167.692307692309,4210.769230769232,4180.000000000002,4179.487179487181,0.0,2047.0,2048.0,0.0,0.0,4.0,4.0,4.0,4.0,0.0,4.0,4.0,4.0,4.0,0.0,4.0,2.0,4.0,4.0,4.0,4.0
29.0,0.0,4188.20512820513,4197.435897435899,4195.384615384617,4183.076923076925,4187.179487179489,4166.153846153848,4188.20512820513,4185.641025641027,4200.512820512822,4184.615384615386,4168.71794871795,4208.20512820513,4182.051282051283,4183.076923076925,0.0,2047.0,2048.0,0.0,0.0,4.0,4.0,4.0,4.0,0.0,4.0,4.0,4.0,4.0,0.0,4.0,2.0,4.0,4.0,4.0,4.0
30.0,0.0,4197.435897435899,4193.333333333335,4197.94871794872,4182.051282051283,4183.589743589745,4169.743589743592,4186.153846153848,4183.076923076925,4201.0256410256425,4184.102564102565,4182.564102564104,4206.666666666668,4188.71794871795,4188.20512820513,0.0,2047.0,2048.0,0.0,0.0,4.0,4.0,4.0,4.0,0.0,4.0,4.0,4.0,4.0,0.0,4.0,2.0,4.0,4.0,4.0,4.0
31.0,0.0,4189.743589743592,4192.8205128205145,4181.0256410256425,4180.000000000002,4183.076923076925,4171.282051282053,4186.153846153848,4187.692307692309,4202.051282051283,4184.615384615386,4179.487179487181,4211.282051282053,4192.307692307694,4183.589743589745,0.0,2047.0,2048.0,0.0,0.0,4.0,4.0,4.0,4.0,0.0,4.0,4.0,4.0,4.0,0.0,4.0,2.0,4.0,4.0,4.0,4.0
32.0,0.0,4181.0256410256425,4199.487179487181,4172.307692307694,4180.512820512822,4183.076923076925,4171.794871794873,4186.153846153848,4187.179487179489,4202.051282051283,4186.153846153848,4168.20512820513,4206.666666666668,4187.692307692309,4177.94871794872,0.0,2047.0,2048.0,0.0,0.0,4.0,4.0,4.0,4.0,0.0,4.0,4.0,4.0,4.0,0.0,4.0,2.0,4.0,4.0,4.0,4.0
33.0,0.0,4183.076923076925,4199.487179487181,4185.641025641027,4182.564102564104,4190.769230769232,4173.846153846155,4186.153846153848,4182.051282051283,4198.97435897436,4185.641025641027,4169.23076923077,4205.128205128207,4176.410256410258,4173.846153846155,0.0,2047.0,2048.0,0.0,0.0,4.0,4.0,4.0,4.0,0.0,4.0,4.0,4.0,4.0,0.0,4.0,2.0,4.0,4.0,4.0,4.0
34.0,0.0,4193.846153846155,4203.076923076925,4196.410256410258,4188.71794871795,4190.256410256412,4172.8205128205145,4187.179487179489,4188.71794871795,4198.97435897436,4185.128205128207,4182.564102564104,4209.743589743592,4189.23076923077,4184.615384615386,0.0,2047.0,2048.0,0.0,0.0,4.0,4.0,4.0,4.0,0.0,4.0,4.0,4.0,4.0,0.0,4.0,2.0,4.0,4.0,4.0,4.0
35.0,0.0,4201.538461538463,4203.589743589745,4193.846153846155,4183.589743589745,4183.076923076925,4169.23076923077,4187.179487179489,4197.94871794872,4203.076923076925,4185.128205128207,4188.71794871795,4213.846153846155,4210.256410256412,4203.076923076925,0.0,2047.0,2048.0,0.0,0.0,4.0,4.0,4.0,4.0,0.0,4.0,4.0,4.0,4.0,0.0,4.0,2.0,4.0,4.0,4.0,4.0
36.0,0.0,4197.435897435899,4192.307692307694,4182.564102564104,4169.743589743592,4183.076923076925,4168.20512820513,4184.102564102565,4188.20512820513,4199.487179487181,4185.641025641027,4182.051282051283,4215.897435897437,4198.46153846154,4194.871794871797,0.0,2047.0,2048.0,0.0,0.0,4.0,4.0,4.0,4.0,0.0,4.0,4.0,4.0,4.0,0.0,4.0,2.0,4.0,4.0,4.0,4.0
37.0,0.0,4193.846153846155,4197.94871794872,4180.000000000002,4171.794871794873,4182.564102564104,4169.23076923077,4183.076923076925,4176.410256410258,4193.333333333335,4185.128205128207,4176.410256410258,4209.743589743592,4186.153846153848,4181.538461538463,0.0,2047.0,2048.0,0.0,0.0,4.0,4.0,4.0,4.0,0.0,4.0,4.0,4.0,4.0,0.0,4.0,2.0,4.0,4.0,4.0,4.0
38.0,0.0,4193.846153846155,4205.641025641027,4194.3589743589755,4174.3589743589755,4184.615384615386,4168.71794871795,4183.589743589745,4177.94871794872,4192.8205128205145,4184.615384615386,4168.20512820513,4210.769230769232,4194.871794871797,4191.282051282053,0.0,2047.0,2048.0,0.0,0.0,4.0,4.0,4.0,4.0,0.0,4.0,4.0,4.0,4.0,0.0,4.0,2.0,4.0,4.0,4.0,4.0
39.0,0.0,4187.692307692309,4194.3589743589755,4187.692307692309,4174.3589743589755,4187.179487179489,4172.307692307694,4185.128205128207,4184.102564102565,4198.46153846154,4184.615384615386,4166.666666666668,4214.871794871797,4194.3589743589755,4191.794871794873,0.0,2047.0,2048.0,0.0,0.0,4.0,4.0,4.0,4.0,0.0,4.0,4.0,4.0,4.0,0.0,4.0,2.0,4.0,4.0,4.0,4.0
40.0,0.0,4202.051282051283,4207.692307692309,4187.692307692309,4183.589743589745,4186.666666666668,4177.435897435899,4196.410256410258,4194.871794871797,4210.256410256412,4185.128205128207,4192.307692307694,4213.333333333335,4205.641025641027,4190.256410256412,0.0,2047.0,2048.0,0.0,0.0,4.0,4.0,4.0,4.0,0.0,4.0,4.0,4.0,4.0,0.0,4.0,2.0,4.0,4.0,4.0,4.0
41.0,0.0,4226.153846153848,4220.000000000002,4218.46153846154,4169.23076923077,4187.179487179489,4174.3589743589755,4204.102564102565,4200.512820512822,4212.8205128205145,4185.128205128207,4206.666666666668,4217.94871794872,4230.769230769232,4211.282051282053,0.0,2047.0,2048.0,0.0,0.0,4.0,4.0,4.0,4.0,0.0,4.0,4.0,4.0,4.0,0.0,4.0,2.0,4.0,4.0,4.0,4.0
42.0,0.0,4205.128205128207,4191.794871794873,4202.051282051283,4151.282051282053,4182.564102564104,4168.20512820513,4191.282051282053,4196.923076923078,4207.692307692309,4185.128205128207,4184.102564102565,4213.846153846155,4223.076923076925,4210.769230769232,0.0,2047.0,2048.0,0.0,0.0,4.0,4.0,4.0,4.0,0.0,4.0,4.0,4.0,4.0,0.0,4.0,2.0,4.0,4.0,4.0,4.0
43.0,0.0,4178.46153846154,4186.666666666668,4164.102564102565,4175.897435897437,4183.589743589745,4162.051282051283,4182.564102564104,4193.846153846155,4211.282051282053,4185.128205128207,4179.487179487181,4211.794871794873,4208.71794871795,4191.794871794873,0.0,2047.0,2048.0,0.0,0.0,4.0,4.0,4.0,4.0,0.0,4.0,4.0,4.0,4.0,0.0,4.0,2.0,4.0,4.0,4.0,4.0
44.0,0.0,4196.410256410258,4211.282051282053,4185.641025641027,4188.20512820513,4190.769230769232,4153.846153846155,4182.564102564104,4184.615384615386,4209.743589743592,4185.128205128207,4188.20512820513,4214.871794871797,4224.102564102565,4198.46153846154,0.0,2047.0,2048.0,0.0,0.0,4.0,4.0,4.0,4.0,0.0,4.0,4.0,4.0,4.0,0.0,4.0,2.0,4.0,4.0,4.0,4.0
45.0,0.0,4205.128205128207,4192.8205128205145,4213.846153846155,4166.153846153848,4195.384615384617,4148.20512820513,4180.512820512822,4170.256410256412,4193.846153846155,4185.128205128207,4166.666666666668,4208.20512820513,4224.615384615386,4203.076923076925,0.0,2047.0,2048.0,0.0,0.0,4.0,4.0,4.0,4.0,0.0,4.0,4.0,4.0,4.0,0.0,4.0,2.0,4.0,4.0,4.0,4.0
46.0,0.0,4187.692307692309,4160.512820512822,4192.307692307694,4172.8205128205145,4192.8205128205145,4152.307692307694,4185.128205128207,4185.128205128207,4202.051282051283,4185.128205128207,4168.20512820513,4210.769230769232,4221.538461538463,4194.3589743589755,0.0,2047.0,2048.0,0.0,0.0,4.0,4.0,4.0,4.0,0.0,4.0,4.0,4.0,4.0,0.0,4.0,2.0,4.0,4.0,4.0,4.0
47.0,0.0,4188.20512820513,4163.076923076925,4154.871794871797,4191.794871794873,4176.410256410258,4162.564102564104,4183.589743589745,4212.307692307694,4222.564102564104,4185.128205128207,4203.589743589745,4213.333333333335,4238.46153846154,4200.000000000002,0.0,2047.0,2048.0,0.0,0.0,4.0,4.0,4.0,4.0,0.0,4.0,4.0,4.0,4.0,0.0,4.0,2.0,4.0,4.0,4.0,4.0
48.0,0.0,4201.0256410256425,4162.051282051283,4155.897435897437,4187.692307692309,4171.794871794873,4168.71794871795,4169.23076923077,4201.0256410256425,4209.23076923077,4185.128205128207,4197.435897435899,4211.794871794873,4236.410256410258,4204.615384615386,0.0,2047.0,2048.0,0.0,0.0,4.0,4.0,4.0,4.0,0.0,4.0,4.0,4.0,4.0,0.0,4.0,2.0,4.0,4.0,4.0,4.0
49.0,0.0,4200.512820512822,4141.0256410256425,4193.333333333335,4183.076923076925,4189.743589743592,4170.769230769232,4179.487179487181,4182.051282051283,4191.794871794873,4185.128205128207,4172.307692307694,4210.256410256412,4220.000000000002,4197.435897435899,0.0,2047.0,2048.0,0.0,0.0,4.0,4.0,4.0,4.0,0.0,4.0,4.0,4.0,4.0,0.0,4.0,2.0,4.0,4.0,4.0,4.0
50.0,0.0,4190.256410256412,4123.076923076925,4229.23076923077,4182.051282051283,4206.153846153848,4170.769230769232,4209.743589743592,4188.20512820513,4198.46153846154,4185.128205128207,4173.846153846155,4207.692307692309,4211.282051282053,4187.179487179489,0.0,2047.0,2048.0,0.0,0.0,4.0,4.0,4.0,4.0,0.0,4.0,4.0,4.0,4.0,0.0,4.0,2.0,4.0,4.0,4.0,4.0
51.0,0.0,4190.256410256412,4110.256410256412,4221.538461538463,4184.102564102565,4196.923076923078,4166.153846153848,4201.538461538463,4192.8205128205145,4203.589743589745,4185.128205128207,4177.435897435899,4213.846153846155,4210.769230769232,4186.153846153848,0.0,2047.0,2048.0,0.0,0.0,4.0,4.0,4.0,4.0,0.0,4.0,4.0,4.0,4.0,0.0,4.0,2.0,4.0,4.0,4.0,4.0
52.0,0.0,4200.512820512822,4107.179487179489,4180.512820512822,4187.692307692309,4170.769230769232,4158.46153846154,4165.641025641027,4182.051282051283,4198.97435897436,4185.128205128207,4180.512820512822,4214.871794871797,4226.666666666668,4201.538461538463,0.0,2047.0,2048.0,0.0,0.0,4.0,4.0,4.0,4.0,0.0,4.0,4.0,4.0,4.0,0.0,4.0,2.0,4.0,4.0,4.0,4.0
53.0,0.0,4198.46153846154,4108.20512820513,4171.794871794873,4180.000000000002,4172.8205128205145,4152.307692307694,4160.000000000002,4179.487179487181,4200.000000000002,4185.128205128207,4183.076923076925,4211.282051282053,4232.307692307694,4203.076923076925,0.0,2047.0,2048.0,0.0,0.0,4.0,4.0,4.0,4.0,0.0,4.0,4.0,4.0,4.0,0.0,4.0,2.0,4.0,4.0,4.0,4.0
54.0,0.0,4185.128205128207,4103.589743589745,4203.076923076925,4175.384615384617,4195.384615384617,4153.333333333335,4183.589743589745,4187.179487179489,4202.564102564104,4185.128205128207,4172.8205128205145,4210.769230769232,4215.897435897437,4187.179487179489,0.0,2047.0,2048.0,0.0,0.0,4.0,4.0,4.0,4.0,0.0,4.0,4.0,4.0,4.0,0.0,4.0,2.0,4.0,4.0,4.0,4.0
55.0,0.0,4187.692307692309,4102.564102564104,4223.076923076925,4184.615384615386,4197.94871794872,4160.000000000002,4192.8205128205145,4183.589743589745,4200.000000000002,4185.128205128207,4177.435897435899,4209.23076923077,4216.923076923078,4189.23076923077,0.0,2047.0,2048.0,0.0,0.0,4.0,4.0,4.0,4.0,0.0,4.0,4.0,4.0,4.0,0.0,4.0,2.0,4.0,4.0,4.0,4.0
56.0,0.0,4205.641025641027,4112.307692307694,4210.256410256412,4192.307692307694,4184.102564102565,4168.71794871795,4182.051282051283,4181.538461538463,4202.564102564104,4185.128205128207,4198.97435897436,4214.3589743589755,4242.051282051283,4207.692307692309,0.0,2047.0,2048.0,0.0,0.0,4.0,4.0,4.0,4.0,0.0,4.0,4.0,4.0,4.0,0.0,4.0,2.0,4.0,4.0,4.0,4.0
57.0,0.0,4201.0256410256425,4112.307692307694,4184.102564102565,4188.71794871795,4176.410256410258,4168.20512820513,4178.46153846154,4193.333333333335,4206.153846153848,4185.128205128207,4195.897435897437,4212.8205128205145,4237.94871794872,4201.538461538463,0.0,2047.0,2048.0,0.0,0.0,4.0,4.0,4.0,4.0,0.0,4.0,4.0,4.0,4.0,0.0,4.0,2.0,4.0,4.0,4.0,4.0
58.0,0.0,4181.0256410256425,4097.94871794872,4187.692307692309,4181.538461538463,4186.153846153848,4168.20512820513,4197.94871794872,4203.076923076925,4206.666666666668,4185.128205128207,4175.384615384617,4209.743589743592,4211.794871794873,4180.512820512822,0.0,2047.0,2048.0,0.0,0.0,4.0,4.0,4.0,4.0,0.0,4.0,4.0,4.0,4.0,0.0,4.0,2.0,4.0,4.0,4.0,4.0
59.0,0.0,4185.641025641027,4101.0256410256425,4210.769230769232,4185.128205128207,4190.769230769232,4172.8205128205145,4212.8205128205145,4202.051282051283,4212.307692307694,4185.128205128207,4181.0256410256425,4213.846153846155,4220.000000000002,4187.692307692309,0.0,2047.0,2048.0,0.0,0.0,4.0,4.0,4.0,4.0,0.0,4.0,4.0,4.0,4.0,0.0,4.0,2.0,4.0,4.0,4.0,4.0
60.0,0.0,4200.512820512822,4119.487179487181,4205.128205128207,4194.3589743589755,4184.102564102565,4171.282051282053,4200.000000000002,4198.97435897436,4217.94871794872,4185.128205128207,4193.846153846155,4212.307692307694,4238.46153846154,4205.128205128207,0.0,2047.0,2048.0,0.0,0.0,4.0,4.0,4.0,4.0,0.0,4.0,4.0,4.0,4.0,0.0,4.0,2.0,4.0,4.0,4.0,4.0
61.0,0.0,4194.3589743589755,4122.051282051283,4191.282051282053,4192.8205128205145,4184.615384615386,4171.794871794873,4191.794871794873,4201.538461538463,4213.333333333335,4185.128205128207,4189.23076923077,4212.307692307694,4224.615384615386,4200.000000000002,0.0,2047.0,2048.0,0.0,0.0,4.0,4.0,4.0,4.0,0.0,4.0,4.0,4.0,4.0,0.0,4.0,2.0,4.0,4.0,4.0,4.0
62.0,0.0,4189.743589743592,4115.897435897437,4199.487179487181,4187.179487179489,4185.128205128207,4171.794871794873,4195.897435897437,4198.46153846154,4211.282051282053,4185.128205128207,4185.641025641027,4212.307692307694,4218.46153846154,4195.897435897437,0.0,2047.0,2048.0,0.0,0.0,4.0,4.0,4.0,4.0,0.0,4.0,4.0,4.0,4.0,0.0,4.0,2.0,4.0,4.0,4.0,4.0
63.0,0.0,4196.923076923078,4118.97435897436,4210.769230769232,4186.153846153848,4186.666666666668,4169.743589743592,4196.923076923078,4190.256410256412,4210.256410256412,4185.128205128207,4185.641025641027,4210.769230769232,4227.692307692309,4200.000000000002,0.0,2047.0,2048.0,0.0,0.0,4.0,4.0,4.0,4.0,0.0,4.0,4.0,4.0,4.0,0.0,4.0,2.0,4.0,4.0,4.0,4.0
64.0,0.0,4197.94871794872,4123.076923076925,4204.615384615386,4186.666666666668,4185.641025641027,4175.897435897437,4197.435897435899,4194.871794871797,4208.71794871795,4185.128205128207,4185.641025641027,4214.871794871797,4223.589743589745,4203.589743589745,677.0,2047.0,2048.0,0.0,0.0,4.0,4.0,4.0,4.0,0.0,4.0,4.0,4.0,4.0,0.0,4.0,2.0,4.0,4.0,4.0,4.0
65.0,0.0,4196.923076923078,4123.589743589745,4195.384615384617,4190.256410256412,4177.94871794872,4184.102564102565,4201.538461538463,4202.051282051283,4214.871794871797,4185.128205128207,4187.179487179489,4212.8205128205145,4216.923076923078,4205.128205128207,827.0,2047.0,2048.0,0.0,0.0,4.0,4.0,4.0,4.0,0.0,4.0,4.0,4.0,4.0,0.0,4.0,2.0,4.0,4.0,4.0,4.0
66.0,0.0,4192.8205128205145,4122.564102564104,4199.487179487181,4191.282051282053,4184.102564102565,4187.179487179489,4203.076923076925,4193.333333333335,4216.410256410258,4185.128205128207,4180.000000000002,4210.769230769232,4209.23076923077,4190.769230769232,803.0,2047.0,2048.0,0.0,0.0,4.0,4.0,4.0,4.0,0.0,4.0,4.0,4.0,4.0,0.0,4.0,2.0,4.0,4.0,4.0,4.0
67.0,0.0,4185.128205128207,4123.076923076925,4209.23076923077,4185.641025641027,4192.307692307694,4183.076923076925,4197.94871794872,4183.589743589745,4205.641025641027,4185.128205128207,4164.102564102565,4208.71794871795,4197.435897435899,4182.051282051283,785.0,2047.0,2048.0,0.0,0.0,4.0,4.0,4.0,4.0,0.0,4.0,4.0,4.0,4.0,0.0,4.0,2.0,4.0,4.0,4.0,4.0
68.0,0.0,4199.487179487181,4127.179487179489,4223.076923076925,4177.94871794872,4187.692307692309,4173.846153846155,4187.692307692309,4188.20512820513,4204.102564102565,4185.128205128207,4162.051282051283,4213.333333333335,4197.94871794872,4204.102564102565,0.0,2047.0,2048.0,0.0,0.0,4.0,4.0,4.0,4.0,0.0,4.0,4.0,4.0,4.0,0.0,4.0,2.0,4.0,4.0,4.0,4.0
69.0,0.0,4206.666666666668,4125.641025641027,4207.692307692309,4176.923076923078,4180.512820512822,4177.435897435899,4177.94871794872,4189.23076923077,4213.333333333335,4185.128205128207,4175.897435897437,4219.487179487181,4202.564102564104,4207.179487179489,776.0,2047.0,2048.0,0.0,0.0,4.0,4.0,4.0,4.0,0.0,4.0,4.0,4.0,4.0,0.0,4.0,2.0,4.0,4.0,4.0,4.0
70.0,0.0,4182.564102564104,4124.615384615386,4170.769230769232,4184.102564102565,4181.0256410256425,4192.8205128205145,4181.538461538463,4184.615384615386,4197.94871794872,4185.128205128207,4174.871794871797,4208.20512820513,4197.435897435899,4177.435897435899,798.0,2047.0,2048.0,0.0,0.0,4.0,4.0,4.0,4.0,0.0,4.0,4.0,4.0,4.0,0.0,4.0,2.0,4.0,4.0,4.0,4.0
71.0,0.0,4193.333333333335,4140.512820512822,4201.538461538463,4189.743589743592,4191.794871794873,4195.897435897437,4196.410256410258,4192.8205128205145,4158.97435897436,4185.128205128207,4167.692307692309,4208.71794871795,4202.051282051283,4181.0256410256425,795.0,2047.0,2048.0,0.0,0.0,4.0,4.0,4.0,4.0,0.0,4.0,4.0,4.0,4.0,0.0,4.0,2.0,4.0,4.0,4.0,4.0
72.0,0.0,4209.23076923077,4144.615384615386,4231.794871794873,4174.3589743589755,4192.8205128205145,4188.20512820513,4204.615384615386,4198.97435897436,4137.94871794872,4185.128205128207,4172.307692307694,4217.94871794872,4201.0256410256425,4199.487179487181,622.0,2047.0,2048.0,0.0,0.0,4.0,4.0,4.0,4.0,0.0,4.0,4.0,4.0,4.0,0.0,4.0,2.0,4.0,4.0,4.0,4.0
73.0,0.0,4186.666666666668,4123.076923076925,4202.051282051283,4153.846153846155,4185.641025641027,4188.20512820513,4197.435897435899,4188.71794871795,4138.46153846154,4185.128205128207,4174.871794871797,4209.23076923077,4188.71794871795,4183.589743589745,0.0,2047.0,2048.0,0.0,0.0,4.0,4.0,4.0,4.0,0.0,4.0,4.0,4.0,4.0,0.0,4.0,2.0,4.0,4.0,4.0,4.0
74.0,0.0,4186.153846153848,4109.743589743592,4204.102564102565,4169.23076923077,4184.102564102565,4187.692307692309,4182.564102564104,4176.410256410258,4136.410256410258,4185.128205128207,4165.641025641027,4207.179487179489,4191.282051282053,4176.410256410258,859.0,2047.0,2048.0,0.0,0.0,4.0,4.0,4.0,4.0,0.0,4.0,4.0,4.0,4.0,0.0,4.0,2.0,4.0,4.0,4.0,4.0
75.0,0.0,4201.538461538463,4117.94871794872,4213.333333333335,4189.23076923077,4180.000000000002,4187.692307692309,4181.538461538463,4183.076923076925,4139.487179487181,4185.128205128207,4165.641025641027,4211.794871794873,4197.94871794872,4191.794871794873,847.0,2047.0,2048.0,0.0,0.0,4.0,4.0,4.0,4.0,0.0,4.0,4.0,4.0,4.0,0.0,4.0,2.0,4.0,4.0,4.0,4.0
76.0,0.0,4196.923076923078,4136.410256410258,4194.871794871797,4164.102564102565,4181.0256410256425,4195.897435897437,4196.923076923078,4201.0256410256425,4152.8205128205145,4185.128205128207,4181.538461538463,4215.384615384617,4208.20512820513,4201.0256410256425,849.0,2047.0,2048.0,0.0,0.0,4.0,4.0,4.0,4.0,0.0,4.0,4.0,4.0,4.0,0.0,4.0,2.0,4.0,4.0,4.0,4.0
77.0,0.0,4196.410256410258,4143.589743589745,4198.46153846154,4145.641025641027,4187.179487179489,4195.384615384617,4201.0256410256425,4198.97435897436,4149.743589743592,4185.128205128207,4180.000000000002,4212.307692307694,4209.743589743592,4197.94871794872,186.0,2047.0,2048.0,0.0,0.0,4.0,4.0,4.0,4.0,0.0,4.0,4.0,4.0,4.0,0.0,4.0,2.0,4.0,4.0,4.0,4.0
78.0,0.0,4201.538461538463,4126.666666666668,4217.435897435899,4176.923076923078,4190.769230769232,4186.153846153848,4188.20512820513,4178.97435897436,4138.46153846154,4185.128205128207,4170.256410256412,4206.666666666668,4202.564102564104,4191.282051282053,859.0,2047.0,2048.0,0.0,0.0,4.0,4.0,4.0,4.0,0.0,4.0,4.0,4.0,4.0,0.0,4.0,2.0,4.0,4.0,4.0,4.0
79.0,0.0,4195.897435897437,4112.8205128205145,4206.666666666668,4191.794871794873,4188.71794871795,4184.102564102565,4177.94871794872,4167.692307692309,4136.923076923078,4185.128205128207,4168.20512820513,4208.71794871795,4205.128205128207,4185.641025641027,847.0,2047.0,2048.0,0.0,0.0,4.0,4.0,4.0,4.0,0.0,4.0,4.0,4.0,4.0,0.0,4.0,2.0,4.0,4.0,4.0,4.0
80.0,0.0,4194.3589743589755,4107.179487179489,4189.743589743592,4166.153846153848,4178.97435897436,4186.153846153848,4181.0256410256425,4175.384615384617,4140.512820512822,4185.128205128207,4162.564102564104,4207.179487179489,4207.179487179489,4186.153846153848,849.0,2047.0,2048.0,0.0,0.0,4.0,4.0,4.0,4.0,0.0,4.0,4.0,4.0,4.0,0.0,4.0,2.0,4.0,4.0,4.0,4.0
81.0,0.0,4195.384615384617,4098.97435897436,4201.538461538463,4169.743589743592,4182.051282051283,4185.641025641027,4192.307692307694,4183.589743589745,4149.23076923077,4185.128205128207,4168.20512820513,4208.71794871795,4204.615384615386,4188.20512820513,186.0,2047.0,2048.0,0.0,0.0,4.0,4.0,4.0,4.0,0.0,4.0,4.0,4.0,4.0,0.0,4.0,2.0,4.0,4.0,4.0,4.0
82.0,0.0,4191.794871794873,4101.538461538463,4204.102564102565,4198.97435897436,4188.71794871795,4186.153846153848,4196.410256410258,4185.128205128207,4156.410256410258,4185.128205128207,4182.051282051283,4210.769230769232,4212.8205128205145,4186.153846153848,859.0,2047.0,2048.0,0.0,0.0,4.0,4.0,4.0,4.0,0.0,4.0,4.0,4.0,4.0,0.0,4.0,2.0,4.0,4.0,4.0,4.0
83.0,0.0,4193.333333333335,4107.179487179489,4190.769230769232,4201.538461538463,4186.666666666668,4182.051282051283,4189.23076923077,4183.076923076925,4151.282051282053,4185.128205128207,4173.333333333335,4207.692307692309,4223.076923076925,4189.743589743592,847.0,2047.0,2048.0,0.0,0.0,4.0,4.0,4.0,4.0,0.0,4.0,4.0,4.0,4.0,0.0,4.0,2.0,4.0,4.0,4.0,4.0
84.0,0.0,4196.410256410258,4096.923076923078,4185.128205128207,4195.897435897437,4185.128205128207,4177.94871794872,4178.46153846154,4180.512820512822,4142.564102564104,4185.128205128207,4161.0256410256425,4210.769230769232,4217.435897435899,4198.46153846154,849.0,2047.0,2048.0,0.0,0.0,4.0,4.0,4.0,4.0,0.0,4.0,4.0,4.0,4.0,0.0,4.0,2.0,4.0,4.0,4.0,4.0
85.0,0.0,4192.307692307694,4085.1282051282064,4190.769230769232,4197.435897435899,4182.564102564104,4183.076923076925,4181.0256410256425,4184.102564102565,4149.23076923077,4185.128205128207,4177.94871794872,4206.153846153848,4221.0256410256425,4196.923076923078,186.0,2047.0,2048.0,0.0,0.0,4.0,4.0,4.0,4.0,0.0,4.0,4.0,4.0,4.0,0.0,4.0,2.0,4.0,4.0,4.0,4.0
86.0,0.0,4186.666666666668,4082.564102564104,4193.846153846155,4194.3589743589755,4184.102564102565,4182.564102564104,4193.333333333335,4189.23076923077,4156.410256410258,4185.128205128207,4186.153846153848,4202.051282051283,4229.743589743592,4187.179487179489,859.0,2047.0,2048.0,0.0,0.0,4.0,4.0,4.0,4.0,0.0,4.0,4.0,4.0,4.0,0.0,4.0,2.0,4.0,4.0,4.0,4.0
87.0,0.0,4191.794871794873,4084.102564102566,4192.307692307694,4184.102564102565,4185.128205128207,4176.410256410258,4196.410256410258,4190.256410256412,4155.897435897437,4185.128205128207,4183.589743589745,4209.743589743592,4233.333333333335,4192.8205128205145,847.0,2047.0,2048.0,0.0,0.0,4.0,4.0,4.0,4.0,0.0,4.0,4.0,4.0,4.0,0.0,4.0,2.0,4.0,4.0,4.0,4.0
88.0,0.0,4194.871794871797,4085.641025641027,4193.846153846155,4169.23076923077,4183.589743589745,4178.46153846154,4186.666666666668,4184.615384615386,4162.051282051283,4185.128205128207,4183.589743589745,4210.256410256412,4235.384615384617,4201.538461538463,849.0,2047.0,2048.0,0.0,0.0,4.0,4.0,4.0,4.0,0.0,4.0,4.0,4.0,4.0,0.0,4.0,2.0,4.0,4.0,4.0,4.0
89.0,0.0,4192.307692307694,4081.5384615384633,4193.333333333335,4165.128205128207,4187.179487179489,4186.153846153848,4188.71794871795,4181.0256410256425,4165.641025641027,4185.128205128207,4171.794871794873,4209.23076923077,4231.282051282053,4195.384615384617,186.0,2047.0,2048.0,0.0,0.0,4.0,4.0,4.0,4.0,0.0,4.0,4.0,4.0,4.0,0.0,4.0,2.0,4.0,4.0,4.0,4.0
90.0,0.0,4201.0256410256425,4075.8974358974374,4194.3589743589755,4173.846153846155,4186.153846153848,4185.128205128207,4201.0256410256425,4190.256410256412,4161.538461538463,4185.128205128207,4175.384615384617,4208.71794871795,4233.333333333335,4197.435897435899,859.0,2047.0,2048.0,0.0,0.0,4.0,4.0,4.0,4.0,0.0,4.0,4.0,4.0,4.0,0.0,4.0,2.0,4.0,4.0,4.0,4.0
91.0,0.0,4206.666666666668,4079.487179487181,4200.000000000002,4178.46153846154,4185.641025641027,4174.871794871797,4189.743589743592,4186.153846153848,4154.3589743589755,4185.128205128207,4187.692307692309,4210.769230769232,4235.384615384617,4204.615384615386,847.0,2047.0,2048.0,0.0,0.0,4.0,4.0,4.0,4.0,0.0,4.0,4.0,4.0,4.0,0.0,4.0,2.0,4.0,4.0,4.0,4.0
92.0,0.0,4201.538461538463,4086.6666666666683,4197.94871794872,4175.897435897437,4186.153846153848,4164.102564102565,4164.102564102565,4164.615384615386,4146.153846153848,4185.128205128207,4176.923076923078,4212.307692307694,4227.179487179489,4198.97435897436,849.0,2047.0,2048.0,0.0,0.0,4.0,4.0,4.0,4.0,0.0,4.0,4.0,4.0,4.0,0.0,4.0,2.0,4.0,4.0,4.0,4.0
93.0,0.0,4203.076923076925,4082.564102564104,4192.8205128205145,4171.794871794873,4184.102564102565,4164.615384615386,4171.282051282053,4172.307692307694,4148.20512820513,4185.128205128207,4170.256410256412,4207.179487179489,4230.256410256412,4198.46153846154,186.0,2047.0,2048.0,0.0,0.0,4.0,4.0,4.0,4.0,0.0,4.0,4.0,4.0,4.0,0.0,4.0,2.0,4.0,4.0,4.0,4.0
94.0,0.0,4206.666666666668,4075.8974358974374,4198.97435897436,4167.692307692309,4187.692307692309,4173.846153846155,4194.871794871797,4194.3589743589755,4157.435897435899,4185.128205128207,4182.051282051283,4212.8205128205145,4241.0256410256425,4203.076923076925,859.0,2047.0,2048.0,0.0,0.0,4.0,4.0,4.0,4.0,0.0,4.0,4.0,4.0,4.0,0.0,4.0,2.0,4.0,4.0,4.0,4.0
95.0,0.0,4207.179487179489,4080.0000000000014,4198.46153846154,4173.846153846155,4185.641025641027,4166.666666666668,4180.512820512822,4174.871794871797,4150.769230769232,4185.128205128207,4184.615384615386,4213.846153846155,4242.051282051283,4201.538461538463,847.0,2047.0,2048.0,0.0,0.0,4.0,4.0,4.0,4.0,0.0,4.0,4.0,4.0,4.0,0.0,4.0,2.0,4.0,4.0,4.0,4.0
96.0,0.0,4213.846153846155,4086.6666666666683,4189.23076923077,4182.051282051283,4181.0256410256425,4156.410256410258,4156.410256410258,4151.282051282053,4139.487179487181,4185.128205128207,4180.000000000002,4211.282051282053,4244.102564102565,4208.20512820513,849.0,2047.0,2048.0,0.0,0.0,4.0,4.0,4.0,4.0,0.0,4.0,4.0,4.0,4.0,0.0,4.0,2.0,4.0,4.0,4.0,4.0
97.0,0.0,4212.8205128205145,4079.487179487181,4193.333333333335,4172.307692307694,4185.128205128207,4165.128205128207,4174.3589743589755,4176.410256410258,4155.384615384617,4185.128205128207,4187.692307692309,4217.435897435899,4250.256410256412,4215.897435897437,186.0,2047.0,2048.0,0.0,0.0,4.0,4.0,4.0,4.0,0.0,4.0,4.0,4.0,4.0,0.0,4.0,2.0,4.0,4.0,4.0,4.0
98.0,0.0,4204.615384615386,4071.7948717948734,4204.615384615386,4169.23076923077,4190.256410256412,4167.692307692309,4198.97435897436,4197.94871794872,4168.20512820513,4185.128205128207,4190.256410256412,4214.3589743589755,4241.538461538463,4207.692307692309,859.0,2047.0,2048.0,0.0,0.0,4.0,4.0,4.0,4.0,0.0,4.0,4.0,4.0,4.0,0.0,4.0,2.0,4.0,4.0,4.0,4.0
99.0,0.0,4206.666666666668,4077.435897435899,4209.743589743592,4183.076923076925,4192.307692307694,4155.897435897437,4182.564102564104,4177.435897435899,4156.923076923078,4185.128205128207,4186.153846153848,4212.8205128205145,4231.282051282053,4195.897435897437,847.0,2047.0,2048.0,0.0,0.0,4.0,4.0,4.0,4.0,0.0,4.0,4.0,4.0,4.0,0.0,4.0,2.0,4.0,4.0,4.0,4.0
100.0,0.0,4202.051282051283,4078.46153846154,4194.3589743589755,4178.46153846154,4185.128205128207,4151.794871794873,4163.589743589745,4164.615384615386,4152.8205128205145,4185.641025641027,4184.102564102565,4210.769230769232,4232.307692307694,4190.769230769232,849.0,2047.0,2048.0,0.0,0.0,4.0,4.0,4.0,4.0,0.0,4.0,4.0,4.0,4.0,0.0,4.0,2.0,4.0,4.0,4.0,4.0
101.0,0.0,4192.307692307694,4070.256410256412,4186.153846153848,4165.128205128207,4181.538461538463,4156.410256410258,4173.333333333335,4177.435897435899,4154.3589743589755,4184.615384615386,4180.512820512822,4206.666666666668,4229.23076923077,4190.769230769232,186.0,2047.0,2048.0,0.0,0.0,4.0,4.0,4.0,4.0,0.0,4.0,4.0,4.0,4.0,0.0,4.0,2.0,4.0,4.0,4.0,4.0
102.0,0.0,4199.487179487181,4076.4102564102577,4205.128205128207,4173.333333333335,4187.179487179489,4161.0256410256425,4187.179487179489,4183.076923076925,4155.897435897437,4185.641025641027,4183.076923076925,4212.307692307694,4228.20512820513,4197.94871794872,859.0,2047.0,2048.0,0.0,0.0,4.0,4.0,4.0,4.0,0.0,4.0,4.0,4.0,4.0,0.0,4.0,2.0,4.0,4.0,4.0,4.0
103.0,0.0,4211.282051282053,4088.71794871795,4213.333333333335,4182.051282051283,4189.743589743592,4168.71794871795,4197.435897435899,4192.307692307694,4166.666666666668,4187.179487179489,4192.307692307694,4213.846153846155,4233.333333333335,4206.666666666668,847.0,2047.0,2048.0,0.0,0.0,4.0,4.0,4.0,4.0,0.0,4.0,4.0,4.0,4.0,0.0,4.0,2.0,4.0,4.0,4.0,4.0
104.0,0.0,4216.923076923078,4092.3076923076937,4207.179487179489,4181.538461538463,4186.666666666668,4170.256410256412,4186.153846153848,4195.384615384617,4170.769230769232,4185.641025641027,4197.435897435899,4215.384615384617,4238.46153846154,4209.23076923077,849.0,2047.0,2048.0,0.0,0.0,4.0,4.0,4.0,4.0,0.0,4.0,4.0,4.0,4.0,0.0,4.0,2.0,4.0,4.0,4.0,4.0
105.0,0.0,4220.000000000002,4090.256410256412,4204.615384615386,4187.692307692309,4181.0256410256425,4165.128205128207,4169.743589743592,4183.589743589745,4168.20512820513,4184.615384615386,4202.051282051283,4216.923076923078,4247.692307692309,4217.435897435899,186.0,2047.0,2048.0,0.0,0.0,4.0,4.0,4.0,4.0,0.0,4.0,4.0,4.0,4.0,0.0,4.0,2.0,4.0,4.0,4.0,4.0
106.0,0.0,4213.846153846155,4089.743589743591,4205.128205128207,4190.256410256412,4183.589743589745,4170.256410256412,4182.051282051283,4188.20512820513,4172.307692307694,4185.641025641027,4201.0256410256425,4215.384615384617,4248.71794871795,4218.97435897436,859.0,2047.0,2048.0,0.0,0.0,4.0,4.0,4.0,4.0,0.0,4.0,4.0,4.0,4.0,0.0,4.0,2.0,4.0,4.0,4.0,4.0
107.0,0.0,4205.641025641027,4095.8974358974374,4208.71794871795,4182.051282051283,4189.23076923077,4172.307692307694,4191.794871794873,4190.769230769232,4165.128205128207,4186.153846153848,4183.076923076925,4218.46153846154,4229.23076923077,4209.743589743592,847.0,2047.0,2048.0,0.0,0.0,4.0,4.0,4.0,4.0,0.0,4.0,4.0,4.0,4.0,0.0,4.0,2.0,4.0,4.0,4.0,4.0
108.0,0.0,4211.282051282053,4106.153846153848,4212.307692307694,4181.538461538463,4184.615384615386,4166.666666666668,4180.512820512822,4171.282051282053,4151.794871794873,4184.615384615386,4174.3589743589755,4215.384615384617,4217.435897435899,4209.743589743592,849.0,2047.0,2048.0,0.0,0.0,4.0,4.0,4.0,4.0,0.0,4.0,4.0,4.0,4.0,0.0,4.0,2.0,4.0,4.0,4.0,4.0
109.0,0.0,4211.282051282053,4105.128205128207,4205.641025641027,4183.589743589745,4184.615384615386,4174.871794871797,4186.666666666668,4175.384615384617,4162.564102564104,4184.615384615386,4187.692307692309,4214.3589743589755,4220.512820512822,4210.769230769232,186.0,2047.0,2048.0,0.0,0.0,4.0,4.0,4.0,4.0,0.0,4.0,4.0,4.0,4.0,0.0,4.0,2.0,4.0,4.0,4.0,4.0
110.0,0.0,4194.3589743589755,4093.846153846155,4190.769230769232,4171.794871794873,4185.128205128207,4189.743589743592,4207.692307692309,4206.153846153848,4177.94871794872,4186.153846153848,4195.384615384617,4215.384615384617,4221.0256410256425,4200.512820512822,859.0,2047.0,2048.0,0.0,0.0,4.0,4.0,4.0,4.0,0.0,4.0,4.0,4.0,4.0,0.0,4.0,2.0,4.0,4.0,4.0,4.0
111.0,0.0,4191.282051282053,4096.410256410258,4196.410256410258,4171.794871794873,4184.615384615386,4193.333333333335,4208.20512820513,4207.179487179489,4173.846153846155,4186.153846153848,4188.71794871795,4211.282051282053,4215.897435897437,4195.384615384617,847.0,2047.0,2048.0,0.0,0.0,4.0,4.0,4.0,4.0,0.0,4.0,4.0,4.0,4.0,0.0,4.0,2.0,4.0,4.0,4.0,4.0
112.0,0.0,4203.076923076925,4106.153846153848,4211.794871794873,4187.179487179489,4187.692307692309,4189.743589743592,4202.051282051283,4190.769230769232,4168.71794871795,4185.641025641027,4179.487179487181,4213.846153846155,4205.128205128207,4196.410256410258,849.0,2047.0,2048.0,0.0,0.0,4.0,4.0,4.0,4.0,0.0,4.0,4.0,4.0,4.0,0.0,4.0,2.0,4.0,4.0,4.0,4.0
113.0,0.0,4205.128205128207,4112.307692307694,4199.487179487181,4186.666666666668,4184.102564102565,4187.692307692309,4197.435897435899,4187.692307692309,4170.256410256412,4186.153846153848,4175.384615384617,4215.897435897437,4201.538461538463,4195.384615384617,186.0,2047.0,2048.0,0.0,0.0,4.0,4.0,4.0,4.0,0.0,4.0,4.0,4.0,4.0,0.0,4.0,2.0,4.0,4.0,4.0,4.0
114.0,0.0,4202.564102564104,4120.512820512822,4195.384615384617,4179.487179487181,4183.076923076925,4184.615384615386,4187.179487179489,4184.615384615386,4169.743589743592,4186.153846153848,4182.051282051283,4215.897435897437,4212.8205128205145,4197.94871794872,859.0,2047.0,2048.0,0.0,0.0,4.0,4.0,4.0,4.0,0.0,4.0,4.0,4.0,4.0,0.0,4.0,2.0,4.0,4.0,4.0,4.0
115.0,0.0,4209.743589743592,4122.564102564104,4213.846153846155,4181.538461538463,4187.692307692309,4181.538461538463,4184.102564102565,4182.051282051283,4170.256410256412,4185.128205128207,4190.256410256412,4214.3589743589755,4223.589743589745,4205.128205128207,847.0,2047.0,2048.0,0.0,0.0,4.0,4.0,4.0,4.0,0.0,4.0,4.0,4.0,4.0,0.0,4.0,2.0,4.0,4.0,4.0,4.0
116.0,0.0,4211.794871794873,4122.051282051283,4211.794871794873,4183.076923076925,4185.641025641027,4182.051282051283,4189.23076923077,4184.615384615386,4169.23076923077,4185.128205128207,4185.641025641027,4212.307692307694,4218.46153846154,4203.589743589745,849.0,2047.0,2048.0,0.0,0.0,4.0,4.0,4.0,4.0,0.0,4.0,4.0,4.0,4.0,0.0,4.0,2.0,4.0,4.0,4.0,4.0
117.0,0.0,4206.153846153848,4129.743589743592,4198.97435897436,4183.076923076925,4181.538461538463,4183.589743589745,4187.692307692309,4184.102564102565,4170.256410256412,4185.641025641027,4184.102564102565,4217.94871794872,4213.846153846155,4195.384615384617,186.0,2047.0,2048.0,0.0,0.0,4.0,4.0,4.0,4.0,0.0,4.0,4.0,4.0,4.0,0.0,4.0,2.0,4.0,4.0,4.0,4.0
118.0,0.0,4201.538461538463,4131.282051282053,4200.000000000002,4183.076923076925,4181.0256410256425,4183.589743589745,4183.076923076925,4176.410256410258,4170.769230769232,4184.615384615386,4187.692307692309,4213.846153846155,4220.512820512822,4194.871794871797,859.0,2047.0,2048.0,0.0,0.0,4.0,4.0,4.0,4.0,0.0,4.0,4.0,4.0,4.0,0.0,4.0,2.0,4.0,4.0,4.0,4.0
119.0,0.0,4202.051282051283,4126.153846153848,4210.256410256412,4180.512820512822,4185.641025641027,4180.512820512822,4182.564102564104,4165.641025641027,4164.102564102565,4185.128205128207,4177.94871794872,4210.256410256412,4215.897435897437,4194.871794871797,847.0,2047.0,2048.0,0.0,0.0,4.0,4.0,4.0,4.0,0.0,4.0,4.0,4.0,4.0,0.0,4.0,2.0,4.0,4.0,4.0,4.0
120.0,0.0,4202.051282051283,4133.846153846155,4213.333333333335,4182.051282051283,4185.128205128207,4182.564102564104,4185.641025641027,4171.282051282053,4165.128205128207,4185.128205128207,4174.871794871797,4215.897435897437,4208.20512820513,4191.282051282053,849.0,2047.0,2048.0,0.0,0.0,4.0,4.0,4.0,4.0,0.0,4.0,4.0,4.0,4.0,0.0,4.0,2.0,4.0,4.0,4.0,4.0
121.0,0.0,4201.538461538463,4145.128205128207,4208.71794871795,4182.564102564104,4181.538461538463,4180.000000000002,4184.615384615386,4185.641025641027,4172.307692307694,4185.128205128207,4189.743589743592,4213.333333333335,4216.410256410258,4192.307692307694,186.0,2047.0,2048.0,0.0,0.0,4.0,4.0,4.0,4.0,0.0,4.0,4.0,4.0,4.0,0.0,4.0,2.0,4.0,4.0,4.0,4.0
122.0,0.0,4202.051282051283,4138.46153846154,4202.051282051283,4169.23076923077,4185.641025641027,4170.256410256412,4184.615384615386,4188.20512820513,4169.743589743592,4185.128205128207,4187.179487179489,4211.794871794873,4218.97435897436,4190.769230769232,859.0,2047.0,2048.0,0.0,0.0,4.0,4.0,4.0,4.0,0.0,4.0,4.0,4.0,4.0,0.0,4.0,2.0,4.0,4.0,4.0,4.0
123.0,0.0,4196.410256410258,4130.256410256412,4192.8205128205145,4162.051282051283,4183.589743589745,4173.333333333335,4190.256410256412,4185.128205128207,4169.743589743592,4185.128205128207,4173.846153846155,4210.769230769232,4212.8205128205145,4186.153846153848,847.0,2047.0,2048.0,0.0,0.0,4.0,4.0,4.0,4.0,0.0,4.0,4.0,4.0,4.0,0.0,4.0,2.0,4.0,4.0,4.0,4.0
124.0,0.0,4198.97435897436,4143.076923076925,4194.3589743589755,4180.512820512822,4179.487179487181,4180.000000000002,4188.71794871795,4184.102564102565,4177.94871794872,4185.128205128207,4188.20512820513,4213.846153846155,4225.128205128207,4195.384615384617,849.0,2047.0,2048.0,0.0,0.0,4.0,4.0,4.0,4.0,0.0,4.0,4.0,4.0,4.0,0.0,4.0,2.0,4.0,4.0,4.0,4.0
125.0,0.0,4206.666666666668,4152.8205128205145,4191.282051282053,4188.20512820513,4180.512820512822,4176.410256410258,4183.589743589745,4185.641025641027,4177.435897435899,4185.128205128207,4202.051282051283,4217.435897435899,4231.794871794873,4208.20512820513,186.0,2047.0,2048.0,0.0,0.0,4.0,4.0,4.0,4.0,0.0,4.0,4.0,4.0,4.0,0.0,4.0,2.0,4.0,4.0,4.0,4.0
126.0,0.0,4197.435897435899,4138.97435897436,4184.102564102565,4167.179487179489,4189.23076923077,4170.256410256412,4187.692307692309,4182.564102564104,4174.871794871797,4185.128205128207,4187.692307692309,4210.769230769232,4221.538461538463,4201.0256410256425,859.0,2047.0,2048.0,0.0,0.0,4.0,4.0,4.0,4.0,0.0,4.0,4.0,4.0,4.0,0.0,4.0,2.0,4.0,4.0,4.0,4.0
127.0,0.0,4195.384615384617,4133.333333333335,4207.692307692309,4161.538461538463,4205.128205128207,4173.333333333335,4198.46153846154,4178.46153846154,4181.538461538463,4185.128205128207,4181.538461538463,4210.769230769232,4222.564102564104,4189.23076923077,847.0,2047.0,2048.0,0.0,0.0,4.0,4.0,4.0,4.0,0.0,4.0,4.0,4.0,4.0,0.0,4.0,2.0,4.0,4.0,4.0,4.0
128.0,0.0,4205.641025641027,4148.20512820513,4215.384615384617,4181.538461538463,4198.46153846154,4177.94871794872,4203.589743589745,4182.564102564104,4186.153846153848,4185.128205128207,4192.307692307694,4212.307692307694,4225.128205128207,4186.666666666668,849.0,2047.0,2048.0,0.0,0.0,4.0,4.0,4.0,4.0,0.0,4.0,4.0,4.0,4.0,0.0,4.0,2.0,4.0,4.0,4.0,4.0
0.0,0.0,4206.666666666668,4154.871794871797,4171.282051282053,4188.71794871795,4173.333333333335,4177.435897435899,4187.179487179489,4191.794871794873,4185.128205128207,4185.128205128207,4198.46153846154,4211.282051282053,4218.97435897436,4190.769230769232,677.0,2047.0,2048.0,0.0,0.0,4.0,4.0,4.0,4.0,0.0,4.0,4.0,4.0,4.0,0.0,4.0,2.0,4.0,4.0,4.0,4.0
1.0,0.0,4210.256410256412,4157.435897435899,4144.615384615386,4182.051282051283,4165.641025641027,4178.97435897436,4167.692307692309,4192.307692307694,4185.641025641027,4185.128205128207,4201.0256410256425,4215.897435897437,4231.794871794873,4204.102564102565,827.0,2047.0,2048.0,0.0,0.0,4.0,4.0,4.0,4.0,0.0,4.0,4.0,4.0,4.0,0.0,4.0,2.0,4.0,4.0,4.0,4.0
2.0,0.0,4217.94871794872,4166.666666666668,4183.589743589745,4180.000000000002,4184.615384615386,4182.051282051283,4183.076923076925,4179.487179487181,4180.512820512822,4185.128205128207,4194.3589743589755,4214.3589743589755,4240.512820512822,4210.256410256412,803.0,2047.0,2048.0,0.0,0.0,4.0,4.0,4.0,4.0,0.0,4.0,4.0,4.0,4.0,0.0,4.0,2.0,4.0,4.0,4.0,4.0
3.0,0.0,4214.871794871797,4163.076923076925,4238.97435897436,4185.128205128207,4207.692307692309,4183.589743589745,4209.743589743592,4164.102564102565,4167.692307692309,4185.128205128207,4185.128205128207,4214.871794871797,4219.487179487181,4198.97435897436,786.0,2047.0,2048.0,0.0,0.0,4.0,4.0,4.0,4.0,0.0,4.0,4.0,4.0,4.0,0.0,4.0,2.0,4.0,4.0,4.0,4.0
4.0,0.0,4218.46153846154,4160.512820512822,4239.487179487181,4186.153846153848,4197.435897435899,4183.076923076925,4196.923076923078,4166.666666666668,4173.333333333335,4185.128205128207,4192.8205128205145,4212.8205128205145,4214.871794871797,4198.46153846154,0.0,2047.0,2048.0,0.0,0.0,4.0,4.0,4.0,4.0,0.0,4.0,4.0,4.0,4.0,0.0,4.0,2.0,4.0,4.0,4.0,4.0
5.0,0.0,4225.128205128207,4169.23076923077,4188.71794871795,4174.3589743589755,4170.769230769232,4183.076923076925,4175.384615384617,4189.743589743592,4191.794871794873,4185.128205128207,4189.743589743592,4211.794871794873,4226.153846153848,4210.769230769232,776.0,2047.0,2048.0,0.0,0.0,4.0,4.0,4.0,4.0,0.0,4.0,4.0,4.0,4.0,0.0,4.0,2.0,4.0,4.0,4.0,4.0
6.0,0.0,4208.71794871795,4161.0256410256425,4149.23076923077,4164.615384615386,4169.23076923077,4177.435897435899,4188.71794871795,4202.051282051283,4194.871794871797,4185.128205128207,4170.256410256412,4216.410256410258,4213.333333333335,4197.435897435899,799.0,2047.0,2048.0,0.0,0.0,4.0,4.0,4.0,4.0,0.0,4.0,4.0,4.0,4.0,0.0,4.0,2.0,4.0,4.0,4.0,4.0
7.0,0.0,4185.128205128207,4146.153846153848,4165.128205128207,4165.641025641027,4187.179487179489,4171.282051282053,4203.589743589745,4189.23076923077,4184.615384615386,4185.128205128207,4169.743589743592,4206.666666666668,4196.923076923078,4169.743589743592,796.0,2047.0,2048.0,0.0,0.0,4.0,4.0,4.0,4.0,0.0,4.0,4.0,4.0,4.0,0.0,4.0,2.0,4.0,4.0,4.0,4.0
8.0,0.0,4191.282051282053,4153.846153846155,4218.97435897436,4158.46153846154,4200.512820512822,4172.8205128205145,4196.410256410258,4178.97435897436,4183.589743589745,4185.128205128207,4187.179487179489,4205.128205128207,4208.71794871795,4171.794871794873,623.0,2047.0,2048.0,0.0,0.0,4.0,4.0,4.0,4.0,0.0,4.0,4.0,4.0,4.0,0.0,4.0,2.0,4.0,4.0,4.0,4.0
9.0,0.0,4201.538461538463,4152.8205128205145,4227.179487179489,4149.743589743592,4188.20512820513,4172.307692307694,4185.641025641027,4181.538461538463,4184.615384615386,4185.128205128207,4189.23076923077,4212.8205128205145,4221.538461538463,4192.307692307694,0.0,2047.0,2048.0,0.0,0.0,4.0,4.0,4.0,4.0,0.0,4.0,4.0,4.0,4.0,0.0,4.0,2.0,4.0,4.0,4.0,4.0
10.0,0.0,4200.512820512822,4144.102564102565,4184.102564102565,4161.538461538463,4172.307692307694,4171.282051282053,4181.0256410256425,4180.000000000002,4179.487179487181,4185.128205128207,4182.051282051283,4212.8205128205145,4211.282051282053,4197.94871794872,859.0,2047.0,2048.0,0.0,0.0,4.0,4.0,4.0,4.0,0.0,4.0,4.0,4.0,4.0,0.0,4.0,2.0,4.0,4.0,4.0,4.0
11.0,0.0,4210.256410256412,4151.282051282053,4177.94871794872,4174.3589743589755,4176.410256410258,4178.97435897436,4185.128205128207,4183.076923076925,4186.666666666668,4185.128205128207,4190.769230769232,4215.384615384617,4208.71794871795,4197.94871794872,847.0,2047.0,2048.0,0.0,0.0,4.0,4.0,4.0,4.0,0.0,4.0,4.0,4.0,4.0,0.0,4.0,2.0,4.0,4.0,4.0,4.0
12.0,0.0,4215.897435897437,4156.923076923078,4213.333333333335,4171.282051282053,4187.179487179489,4185.641025641027,4198.97435897436,4197.435897435899,4200.000000000002,4185.128205128207,4205.128205128207,4214.3589743589755,4221.538461538463,4200.512820512822,849.0,2047.0,2048.0,0.0,0.0,4.0,4.0,4.0,4.0,0.0,4.0,4.0,4.0,4.0,0.0,4.0,2.0,4.0,4.0,4.0,4.0
13.0,0.0,4205.128205128207,4153.333333333335,4228.20512820513,4170.769230769232,4193.333333333335,4181.0256410256425,4207.692307692309,4200.000000000002,4201.538461538463,4185.128205128207,4200.000000000002,4214.3589743589755,4223.076923076925,4198.46153846154,186.0,2047.0,2048.0,0.0,0.0,4.0,4.0,4.0,4.0,0.0,4.0,4.0,4.0,4.0,0.0,4.0,2.0,4.0,4.0,4.0,4.0
14.0,0.0,4204.102564102565,4153.846153846155,4205.641025641027,4174.871794871797,4186.153846153848,4178.97435897436,4195.897435897437,4187.179487179489,4197.94871794872,4185.128205128207,4193.846153846155,4215.897435897437,4217.94871794872,4201.0256410256425,859.0,2047.0,2048.0,0.0,0.0,4.0,4.0,4.0,4.0,0.0,4.0,4.0,4.0,4.0,0.0,4.0,2.0,4.0,4.0,4.0,4.0
15.0,0.0,4208.71794871795,4147.179487179489,4186.666666666668,4164.102564102565,4177.435897435899,4176.923076923078,4184.102564102565,4180.512820512822,4200.000000000002,4185.128205128207,4200.000000000002,4212.8205128205145,4218.46153846154,4199.487179487181,847.0,2047.0,2048.0,0.0,0.0,4.0,4.0,4.0,4.0,0.0,4.0,4.0,4.0,4.0,0.0,4.0,2.0,4.0,4.0,4.0,4.0
16.0,0.0,4204.615384615386,4135.897435897437,4198.46153846154,4153.333333333335,4183.589743589745,4174.3589743589755,4191.794871794873,4192.307692307694,4204.615384615386,4185.128205128207,4201.538461538463,4214.871794871797,4217.94871794872,4191.282051282053,0.0,2047.0,2048.0,0.0,0.0,4.0,4.0,4.0,4.0,0.0,4.0,4.0,4.0,4.0,0.0,4.0,2.0,4.0,4.0,4.0,4.0
17.0,0.0,4203.076923076925,4140.512820512822,4210.256410256412,4163.076923076925,4190.256410256412,4173.846153846155,4203.076923076925,4201.538461538463,4203.076923076925,4185.128205128207,4201.0256410256425,4211.282051282053,4220.512820512822,4195.384615384617,0.0,2047.0,2048.0,0.0,0.0,4.0,4.0,4.0,4.0,0.0,4.0,4.0,4.0,4.0,0.0,4.0,2.0,4.0,4.0,4.0,4.0
18.0,0.0,4201.0256410256425,4141.0256410256425,4207.692307692309,4170.256410256412,4190.256410256412,4174.871794871797,4198.97435897436,4195.384615384617,4201.0256410256425,4185.128205128207,4201.0256410256425,4209.743589743592,4216.923076923078,4193.333333333335,0.0,2047.0,2048.0,0.0,0.0,4.0,4.0,4.0,4.0,0.0,4.0,4.0,4.0,4.0,0.0,4.0,2.0,4.0,4.0,4.0,4.0
19.0,0.0,4194.3589743589755,4130.256410256412,4198.97435897436,4164.102564102565,4182.564102564104,4176.923076923078,4189.23076923077,4194.871794871797,4206.153846153848,4185.128205128207,4201.0256410256425,4215.897435897437,4206.666666666668,4185.128205128207,0.0,2047.0,2048.0,0.0,0.0,4.0,4.0,4.0,4.0,0.0,4.0,4.0,4.0,4.0,0.0,4.0,2.0,4.0,4.0,4.0,4.0
20.0,0.0,4198.46153846154,4131.794871794873,4196.410256410258,4166.666666666668,4180.000000000002,4176.410256410258,4186.153846153848,4202.051282051283,4206.666666666668,4184.615384615386,4209.743589743592,4216.410256410258,4221.0256410256425,4196.410256410258,0.0,2047.0,2048.0,0.0,0.0,4.0,4.0,4.0,4.0,0.0,4.0,4.0,4.0,4.0,0.0,4.0,2.0,4.0,4.0,4.0,4.0
21.0,0.0,4205.641025641027,4140.512820512822,4204.615384615386,4179.487179487181,4188.71794871795,4171.282051282053,4187.692307692309,4201.538461538463,4197.435897435899,4185.128205128207,4213.333333333335,4217.435897435899,4232.8205128205145,4209.23076923077,0.0,2047.0,2048.0,0.0,0.0,4.0,4.0,4.0,4.0,0.0,4.0,4.0,4.0,4.0,0.0,4.0,2.0,4.0,4.0,4.0,4.0
22.0,0.0,4209.23076923077,4138.97435897436,4211.794871794873,4183.076923076925,4189.743589743592,4168.71794871795,4193.333333333335,4196.923076923078,4200.512820512822,4185.641025641027,4210.256410256412,4216.410256410258,4220.000000000002,4202.051282051283,0.0,2047.0,2048.0,0.0,0.0,4.0,4.0,4.0,4.0,0.0,4.0,4.0,4.0,4.0,0.0,4.0,2.0,4.0,4.0,4.0,4.0
23.0,0.0,4216.923076923078,4137.94871794872,4213.846153846155,4183.076923076925,4187.179487179489,4173.333333333335,4193.846153846155,4195.384615384617,4208.20512820513,4184.615384615386,4216.923076923078,4214.871794871797,4219.487179487181,4199.487179487181,0.0,2047.0,2048.0,0.0,0.0,4.0,4.0,4.0,4.0,0.0,4.0,4.0,4.0,4.0,0.0,4.0,2.0,4.0,4.0,4.0,4.0
24.0,0.0,4219.487179487181,4141.0256410256425,4208.71794871795,4185.128205128207,4187.179487179489,4167.179487179489,4183.589743589745,4181.0256410256425,4195.897435897437,4184.615384615386,4220.000000000002,4213.333333333335,4228.71794871795,4204.615384615386,0.0,2047.0,2048.0,0.0,0.0,4.0,4.0,4.0,4.0,0.0,4.0,4.0,4.0,4.0,0.0,4.0,2.0,4.0,4.0,4.0,4.0
25.0,0.0,4208.71794871795,4136.410256410258,4210.256410256412,4180.512820512822,4189.23076923077,4152.8205128205145,4180.000000000002,4168.71794871795,4187.179487179489,4186.666666666668,4207.179487179489,4209.743589743592,4223.589743589745,4199.487179487181,0.0,2047.0,2048.0,0.0,0.0,4.0,4.0,4.0,4.0,0.0,4.0,4.0,4.0,4.0,0.0,4.0,2.0,4.0,4.0,4.0,4.0
26.0,0.0,4208.20512820513,4136.410256410258,4218.97435897436,4178.97435897436,4191.794871794873,4160.000000000002,4188.71794871795,4177.435897435899,4197.94871794872,4187.179487179489,4209.743589743592,4217.94871794872,4228.71794871795,4202.564102564104,0.0,2047.0,2048.0,0.0,0.0,4.0,4.0,4.0,4.0,0.0,4.0,4.0,4.0,4.0,0.0,4.0,2.0,4.0,4.0,4.0,4.0
27.0,0.0,4210.256410256412,4140.512820512822,4194.3589743589755,4183.076923076925,4178.97435897436,4171.794871794873,4183.589743589745,4185.128205128207,4210.256410256412,4184.615384615386,4228.20512820513,4217.94871794872,4240.000000000002,4209.23076923077,0.0,2047.0,2048.0,0.0,0.0,4.0,4.0,4.0,4.0,0.0,4.0,4.0,4.0,4.0,0.0,4.0,2.0,4.0,4.0,4.0,4.0
28.0,0.0,4204.102564102565,4135.384615384617,4171.794871794873,4184.102564102565,4170.769230769232,4168.71794871795,4170.256410256412,4188.71794871795,4213.846153846155,4183.589743589745,4227.179487179489,4212.8205128205145,4233.333333333335,4205.128205128207,0.0,2047.0,2048.0,0.0,0.0,4.0,4.0,4.0,4.0,0.0,4.0,4.0,4.0,4.0,0.0,4.0,2.0,4.0,4.0,4.0,4.0
29.0,0.0,4203.076923076925,4132.8205128205145,4203.076923076925,4184.615384615386,4186.153846153848,4165.641025641027,4183.076923076925,4198.46153846154,4213.333333333335,4185.128205128207,4218.97435897436,4215.384615384617,4232.8205128205145,4206.666666666668,0.0,2047.0,2048.0,0.0,0.0,4.0,4.0,4.0,4.0,0.0,4.0,4.0,4.0,4.0,0.0,4.0,2.0,4.0,4.0,4.0,4.0
30.0,0.0,4201.538461538463,4132.8205128205145,4234.3589743589755,4182.051282051283,4198.46153846154,4171.282051282053,4204.615384615386,4197.435897435899,4214.871794871797,4185.641025641027,4217.435897435899,4213.333333333335,4239.487179487181,4211.282051282053,0.0,2047.0,2048.0,0.0,0.0,4.0,4.0,4.0,4.0,0.0,4.0,4.0,4.0,4.0,0.0,4.0,2.0,4.0,4.0,4.0,4.0
31.0,0.0,4191.794871794873,4126.153846153848,4213.846153846155,4173.333333333335,4189.743589743592,4171.282051282053,4196.923076923078,4182.051282051283,4215.384615384617,4185.128205128207,4211.282051282053,4214.3589743589755,4229.23076923077,4199.487179487181,0.0,2047.0,2048.0,0.0,0.0,4.0,4.0,4.0,4.0,0.0,4.0,4.0,4.0,4.0,0.0,4.0,2.0,4.0,4.0,4.0,4.0
32.0,0.0,4175.897435897437,4121.538461538463,4156.923076923078,4165.128205128207,4171.282051282053,4169.743589743592,4175.384615384617,4183.076923076925,4209.743589743592,4184.615384615386,4197.94871794872,4211.282051282053,4211.282051282053,4175.384615384617,0.0,2047.0,2048.0,0.0,0.0,4.0,4.0,4.0,4.0,0.0,4.0,4.0,4.0,4.0,0.0,4.0,2.0,4.0,4.0,4.0,4.0
33.0,0.0,4168.71794871795,4123.589743589745,4145.128205128207,4166.153846153848,4176.410256410258,4178.97435897436,4182.051282051283,4198.97435897436,4206.666666666668,4185.128205128207,4191.794871794873,4209.23076923077,4207.179487179489,4167.692307692309,0.0,2047.0,2048.0,0.0,0.0,4.0,4.0,4.0,4.0,0.0,4.0,4.0,4.0,4.0,0.0,4.0,2.0,4.0,4.0,4.0,4.0
34.0,0.0,4181.0256410256425,4129.23076923077,4204.102564102565,4170.256410256412,4196.923076923078,4187.692307692309,4204.615384615386,4204.615384615386,4216.410256410258,4185.128205128207,4202.051282051283,4213.333333333335,4220.000000000002,4182.051282051283,0.0,2047.0,2048.0,0.0,0.0,4.0,4.0,4.0,4.0,0.0,4.0,4.0,4.0,4.0,0.0,4.0,2.0,4.0,4.0,4.0,4.0
35.0,0.0,4186.666666666668,4127.179487179489,4232.8205128205145,4170.256410256412,4198.97435897436,4184.102564102565,4206.666666666668,4200.512820512822,4219.487179487181,4184.615384615386,4205.128205128207,4206.153846153848,4221.538461538463,4188.20512820513,0.0,2047.0,2048.0,0.0,0.0,4.0,4.0,4.0,4.0,0.0,4.0,4.0,4.0,4.0,0.0,4.0,2.0,4.0,4.0,4.0,4.0
36.0,0.0,4176.410256410258,4123.076923076925,4192.8205128205145,4168.20512820513,4185.641025641027,4173.846153846155,4180.000000000002,4189.743589743592,4205.641025641027,4185.128205128207,4193.846153846155,4206.153846153848,4207.692307692309,4179.487179487181,0.0,2047.0,2048.0,0.0,0.0,4.0,4.0,4.0,4.0,0.0,4.0,4.0,4.0,4.0,0.0,4.0,2.0,4.0,4.0,4.0,4.0
37.0,0.0,4177.435897435899,4128.71794871795,4162.564102564104,4166.666666666668,4175.897435897437,4166.153846153848,4158.97435897436,4181.538461538463,4203.076923076925,4185.128205128207,4198.46153846154,4211.794871794873,4213.846153846155,4185.128205128207,0.0,2047.0,2048.0,0.0,0.0,4.0,4.0,4.0,4.0,0.0,4.0,4.0,4.0,4.0,0.0,4.0,2.0,4.0,4.0,4.0,4.0
38.0,0.0,4184.102564102565,4132.8205128205145,4182.051282051283,4161.0256410256425,4184.615384615386,4171.282051282053,4184.102564102565,4188.71794871795,4216.923076923078,4185.128205128207,4200.512820512822,4208.71794871795,4222.051282051283,4189.23076923077,0.0,2047.0,2048.0,0.0,0.0,4.0,4.0,4.0,4.0,0.0,4.0,4.0,4.0,4.0,0.0,4.0,2.0,4.0,4.0,4.0,4.0
39.0,0.0,4182.051282051283,4130.769230769232,4201.538461538463,4157.435897435899,4194.3589743589755,4182.051282051283,4205.641025641027,4192.8205128205145,4213.846153846155,4185.128205128207,4184.615384615386,4204.615384615386,4207.692307692309,4174.3589743589755,0.0,2047.0,2048.0,0.0,0.0,4.0,4.0,4.0,4.0,0.0,4.0,4.0,4.0,4.0,0.0,4.0,2.0,4.0,4.0,4.0,4.0
40.0,0.0,4181.538461538463,4133.333333333335,4192.307692307694,4166.153846153848,4186.666666666668,4183.589743589745,4183.076923076925,4181.538461538463,4201.538461538463,4185.128205128207,4185.641025641027,4204.615384615386,4205.128205128207,4174.3589743589755,0.0,2047.0,2048.0,0.0,0.0,4.0,4.0,4.0,4.0,0.0,4.0,4.0,4.0,4.0,0.0,4.0,2.0,4.0,4.0,4.0,4.0
41.0,0.0,4180.000000000002,4137.94871794872,4179.487179487181,4174.3589743589755,4180.512820512822,4183.076923076925,4174.3589743589755,4185.128205128207,4207.692307692309,4185.128205128207,4199.487179487181,4212.8205128205145,4212.307692307694,4183.076923076925,0.0,2047.0,2048.0,0.0,0.0,4.0,4.0,4.0,4.0,0.0,4.0,4.0,4.0,4.0,0.0,4.0,2.0,4.0,4.0,4.0,4.0
42.0,0.0,4174.3589743589755,4140.512820512822,4172.8205128205145,4169.743589743592,4178.46153846154,4186.666666666668,4193.846153846155,4205.128205128207,4220.000000000002,4185.128205128207,4196.923076923078,4212.307692307694,4206.666666666668,4181.538461538463,0.0,2047.0,2048.0,0.0,0.0,4.0,4.0,4.0,4.0,0.0,4.0,4.0,4.0,4.0,0.0,4.0,2.0,4.0,4.0,4.0,4.0
43.0,0.0,4176.923076923078,4145.641025641027,4179.487179487181,4167.179487179489,4183.076923076925,4186.666666666668,4193.846153846155,4201.0256410256425,4215.897435897437,4185.128205128207,4188.71794871795,4205.641025641027,4197.94871794872,4175.384615384617,0.0,2047.0,2048.0,0.0,0.0,4.0,4.0,4.0,4.0,0.0,4.0,4.0,4.0,4.0,0.0,4.0,2.0,4.0,4.0,4.0,4.0
