COUNTER,INTERPOLATED,AF3,F7,F3,FC5,T7,P7,O1,O2,P8,T8,FC6,F4,F8,AF4,RAW_CQ,GYROX,GYROY,MARKER,SYNC,CQ_AF3,CQ_F7,CQ_F3,CQ_FC5,CQ_T7,CQ_P7,CQ_O1,CQ_O2,CQ_P8,CQ_T8,CQ_FC6,CQ_F4,CQ_F8,CQ_AF4,CQ_CMS,CQ_DRL
126.0,0.0,4180.512820512822,4172.307692307694,4182.051282051283,4185.641025641027,4183.589743589745,4204.102564102565,4191.282051282053,4189.743589743592,4201.0256410256425,4185.128205128207,4187.692307692309,4200.000000000002,4194.3589743589755,4184.102564102565,860.0,2047.0,2048.0,0.0,0.0,0.0,0.0,0.0,0.0,0.0,0.0,0.0,0.0,0.0,0.0,0.0,0.0,0.0,0.0,0.0,0.0
127.0,0.0,4183.589743589745,4172.8205128205145,4191.282051282053,4183.076923076925,4192.307692307694,4198.46153846154,4186.666666666668,4187.692307692309,4200.000000000002,4185.641025641027,4180.000000000002,4211.282051282053,4184.102564102565,4185.128205128207,832.0,2047.0,2048.0,0.0,0.0,0.0,0.0,0.0,0.0,0.0,0.0,0.0,0.0,0.0,0.0,0.0,0.0,0.0,0.0,0.0,0.0
128.0,0.0,4183.589743589745,4179.487179487181,4186.153846153848,4193.333333333335,4182.051282051283,4191.282051282053,4169.743589743592,4170.769230769232,4186.153846153848,4187.179487179489,4181.538461538463,4203.076923076925,4179.487179487181,4184.102564102565,855.0,2047.0,2048.0,0.0,0.0,0.0,0.0,4.0,0.0,0.0,0.0,0.0,0.0,0.0,0.0,0.0,0.0,0.0,0.0,4.0,4.0
0.0,0.0,4186.666666666668,4182.051282051283,4196.410256410258,4200.000000000002,4195.384615384617,4201.538461538463,4183.589743589745,4181.0256410256425,4189.743589743592,4185.128205128207,4182.564102564104,4206.153846153848,4185.128205128207,4186.153846153848,708.0,2047.0,2048.0,0.0,0.0,0.0,0.0,4.0,0.0,0.0,0.0,0.0,0.0,0.0,0.0,0.0,0.0,0.0,0.0,4.0,4.0
1.0,0.0,4179.487179487181,4174.871794871797,4191.282051282053,4190.769230769232,4191.282051282053,4209.743589743592,4203.589743589745,4200.512820512822,4205.128205128207,4183.076923076925,4175.384615384617,4208.20512820513,4181.0256410256425,4184.102564102565,836.0,2047.0,2048.0,0.0,0.0,0.0,0.0,4.0,4.0,0.0,0.0,0.0,0.0,0.0,0.0,0.0,0.0,0.0,0.0,4.0,4.0
2.0,0.0,4171.794871794873,4172.307692307694,4173.846153846155,4185.128205128207,4179.487179487181,4202.564102564104,4195.384615384617,4194.3589743589755,4204.102564102565,4184.615384615386,4173.333333333335,4203.589743589745,4175.897435897437,4181.538461538463,767.0,2047.0,2048.0,0.0,0.0,4.0,0.0,4.0,4.0,0.0,0.0,0.0,0.0,0.0,0.0,0.0,0.0,0.0,0.0,4.0,4.0
3.0,0.0,4174.3589743589755,4174.871794871797,4186.153846153848,4190.769230769232,4195.897435897437,4196.410256410258,4184.615384615386,4188.20512820513,4196.410256410258,4186.153846153848,4178.97435897436,4208.20512820513,4181.538461538463,4184.102564102565,809.0,2047.0,2048.0,0.0,0.0,4.0,4.0,4.0,4.0,0.0,0.0,0.0,0.0,0.0,0.0,0.0,0.0,0.0,0.0,4.0,4.0
4.0,0.0,4175.897435897437,4173.846153846155,4188.71794871795,4190.769230769232,4185.641025641027,4194.3589743589755,4184.102564102565,4190.769230769232,4194.3589743589755,4183.589743589745,4174.3589743589755,4200.512820512822,4185.128205128207,4184.615384615386,0.0,2047.0,2048.0,0.0,0.0,4.0,4.0,4.0,4.0,0.0,0.0,0.0,0.0,0.0,0.0,0.0,0.0,0.0,0.0,4.0,4.0
5.0,0.0,4183.076923076925,4177.94871794872,4188.20512820513,4191.282051282053,4188.20512820513,4191.794871794873,4177.435897435899,4183.076923076925,4196.410256410258,4183.589743589745,4164.615384615386,4205.641025641027,4183.589743589745,4185.128205128207,791.0,2047.0,2048.0,0.0,0.0,4.0,4.0,4.0,4.0,0.0,4.0,0.0,0.0,0.0,0.0,0.0,0.0,0.0,0.0,4.0,4.0
6.0,0.0,4188.71794871795,4183.589743589745,4190.769230769232,4198.97435897436,4188.20512820513,4193.333333333335,4174.3589743589755,4182.564102564104,4202.564102564104,4186.153846153848,4177.94871794872,4209.743589743592,4190.256410256412,4188.20512820513,806.0,2047.0,2048.0,0.0,0.0,4.0,4.0,4.0,4.0,0.0,4.0,4.0,0.0,0.0,0.0,0.0,0.0,0.0,0.0,4.0,4.0
7.0,0.0,4181.0256410256425,4180.512820512822,4185.128205128207,4199.487179487181,4184.615384615386,4200.000000000002,4183.589743589745,4187.692307692309,4201.538461538463,4186.153846153848,4188.20512820513,4197.94871794872,4195.384615384617,4185.128205128207,837.0,2047.0,2048.0,0.0,0.0,4.0,4.0,4.0,4.0,0.0,4.0,4.0,4.0,0.0,0.0,0.0,0.0,0.0,0.0,4.0,4.0
8.0,0.0,4177.435897435899,4174.871794871797,4189.743589743592,4195.384615384617,4199.487179487181,4199.487179487181,4189.23076923077,4182.051282051283,4196.410256410258,4185.641025641027,4174.871794871797,4201.0256410256425,4191.282051282053,4184.102564102565,613.0,2047.0,2048.0,0.0,0.0,4.0,4.0,4.0,4.0,0.0,4.0,4.0,4.0,4.0,0.0,0.0,0.0,0.0,0.0,4.0,4.0
9.0,0.0,4183.589743589745,4181.0256410256425,4184.615384615386,4191.794871794873,4184.615384615386,4196.410256410258,4181.538461538463,4180.512820512822,4200.512820512822,4185.641025641027,4169.23076923077,4202.564102564104,4191.794871794873,4188.71794871795,0.0,2047.0,2048.0,0.0,0.0,4.0,4.0,4.0,4.0,0.0,4.0,4.0,4.0,4.0,0.0,0.0,0.0,0.0,0.0,4.0,4.0
10.0,0.0,4187.179487179489,4190.769230769232,4185.641025641027,4190.769230769232,4189.23076923077,4201.538461538463,4174.871794871797,4183.589743589745,4202.564102564104,4184.615384615386,4172.307692307694,4208.20512820513,4190.769230769232,4186.153846153848,861.0,2047.0,2048.0,0.0,0.0,4.0,4.0,4.0,4.0,0.0,4.0,4.0,4.0,4.0,0.0,0.0,0.0,4.0,0.0,4.0,4.0
11.0,0.0,4184.615384615386,4182.051282051283,4187.692307692309,4187.179487179489,4194.3589743589755,4202.051282051283,4177.435897435899,4185.128205128207,4198.97435897436,4183.589743589745,4169.23076923077,4207.692307692309,4184.102564102565,4180.512820512822,832.0,2047.0,2048.0,0.0,0.0,4.0,4.0,4.0,4.0,0.0,4.0,4.0,4.0,4.0,0.0,0.0,0.0,4.0,4.0,4.0,4.0
12.0,0.0,4187.179487179489,4172.8205128205145,4187.179487179489,4182.564102564104,4187.692307692309,4200.000000000002,4184.102564102565,4186.666666666668,4198.97435897436,4185.128205128207,4165.128205128207,4200.000000000002,4181.538461538463,4184.102564102565,855.0,2047.0,2048.0,0.0,0.0,4.0,4.0,4.0,4.0,0.0,4.0,4.0,4.0,4.0,0.0,4.0,0.0,4.0,4.0,4.0,4.0
13.0,0.0,4194.3589743589755,4178.46153846154,4209.743589743592,4191.282051282053,4203.076923076925,4205.641025641027,4191.282051282053,4185.641025641027,4200.000000000002,4185.128205128207,4165.128205128207,4210.769230769232,4183.589743589745,4188.20512820513,601.0,2047.0,2048.0,0.0,0.0,4.0,4.0,4.0,4.0,0.0,4.0,4.0,4.0,4.0,0.0,4.0,4.0,4.0,4.0,4.0,4.0
14.0,0.0,4195.897435897437,4186.153846153848,4201.0256410256425,4203.589743589745,4188.20512820513,4209.743589743592,4194.3589743589755,4187.692307692309,4202.564102564104,4184.615384615386,4174.3589743589755,4209.743589743592,4192.307692307694,4188.20512820513,861.0,2047.0,2048.0,0.0,0.0,4.0,4.0,4.0,4.0,0.0,4.0,4.0,4.0,4.0,0.0,4.0,4.0,4.0,4.0,4.0,4.0
15.0,0.0,4193.846153846155,4187.692307692309,4184.102564102565,4192.8205128205145,4186.666666666668,4206.153846153848,4190.769230769232,4188.71794871795,4203.076923076925,4186.153846153848,4182.051282051283,4207.179487179489,4195.897435897437,4188.71794871795,832.0,2047.0,2048.0,0.0,0.0,4.0,4.0,4.0,4.0,0.0,4.0,4.0,4.0,4.0,0.0,4.0,4.0,4.0,4.0,4.0,4.0
16.0,0.0,4189.23076923077,4177.94871794872,4193.333333333335,4180.000000000002,4194.871794871797,4198.97435897436,4182.564102564104,4181.538461538463,4200.000000000002,4185.128205128207,4172.8205128205145,4205.641025641027,4187.692307692309,4185.128205128207,0.0,2047.0,2048.0,0.0,0.0,4.0,4.0,4.0,4.0,0.0,4.0,4.0,4.0,4.0,0.0,4.0,4.0,4.0,4.0,4.0,4.0
17.0,0.0,4190.256410256412,4173.846153846155,4201.538461538463,4191.282051282053,4186.666666666668,4196.923076923078,4181.538461538463,4180.000000000002,4198.97435897436,4184.102564102565,4166.153846153848,4202.564102564104,4186.666666666668,4185.641025641027,0.0,2047.0,2048.0,0.0,0.0,4.0,4.0,4.0,4.0,0.0,4.0,4.0,4.0,4.0,0.0,4.0,4.0,4.0,4.0,4.0,4.0
18.0,0.0,4198.46153846154,4185.128205128207,4209.23076923077,4196.923076923078,4197.435897435899,4199.487179487181,4184.615384615386,4183.076923076925,4197.94871794872,4185.128205128207,4173.846153846155,4216.923076923078,4195.897435897437,4192.8205128205145,0.0,2047.0,2048.0,0.0,0.0,4.0,4.0,4.0,4.0,0.0,4.0,4.0,4.0,4.0,0.0,4.0,4.0,4.0,4.0,4.0,4.0
19.0,0.0,4191.794871794873,4187.179487179489,4194.871794871797,4182.051282051283,4181.538461538463,4198.97435897436,4177.94871794872,4182.564102564104,4196.410256410258,4184.102564102565,4177.435897435899,4213.333333333335,4197.435897435899,4191.282051282053,0.0,2047.0,2048.0,0.0,0.0,4.0,4.0,4.0,4.0,0.0,4.0,4.0,4.0,4.0,0.0,4.0,4.0,4.0,4.0,4.0,4.0
20.0,0.0,4184.102564102565,4175.384615384617,4189.743589743592,4180.512820512822,4182.564102564104,4199.487179487181,4177.435897435899,4184.102564102565,4200.000000000002,4183.589743589745,4174.3589743589755,4208.71794871795,4190.256410256412,4184.102564102565,0.0,2047.0,2048.0,0.0,0.0,4.0,4.0,4.0,4.0,0.0,4.0,4.0,4.0,4.0,0.0,4.0,4.0,4.0,4.0,4.0,4.0
21.0,0.0,4187.692307692309,4173.333333333335,4200.512820512822,4192.8205128205145,4200.000000000002,4206.153846153848,4188.20512820513,4186.666666666668,4197.94871794872,4185.128205128207,4175.897435897437,4212.8205128205145,4188.20512820513,4184.102564102565,0.0,2047.0,2048.0,0.0,0.0,4.0,4.0,4.0,4.0,0.0,4.0,4.0,4.0,4.0,0.0,4.0,4.0,4.0,4.0,4.0,4.0
22.0,0.0,4191.794871794873,4184.615384615386,4196.410256410258,4192.8205128205145,4188.20512820513,4206.666666666668,4194.3589743589755,4187.692307692309,4196.923076923078,4185.128205128207,4182.051282051283,4205.128205128207,4194.871794871797,4188.20512820513,0.0,2047.0,2048.0,0.0,0.0,4.0,4.0,4.0,4.0,0.0,4.0,4.0,4.0,4.0,0.0,4.0,4.0,4.0,4.0,4.0,4.0
23.0,0.0,4195.384615384617,4189.23076923077,4207.179487179489,4187.179487179489,4194.871794871797,4203.589743589745,4191.282051282053,4183.076923076925,4198.97435897436,4185.128205128207,4182.051282051283,4210.769230769232,4195.897435897437,4189.23076923077,0.0,2047.0,2048.0,0.0,0.0,4.0,4.0,4.0,4.0,0.0,4.0,4.0,4.0,4.0,0.0,4.0,4.0,4.0,4.0,4.0,4.0
24.0,0.0,4190.769230769232,4179.487179487181,4202.564102564104,4184.102564102565,4186.153846153848,4201.0256410256425,4181.0256410256425,4177.435897435899,4197.435897435899,4184.102564102565,4177.435897435899,4212.8205128205145,4195.897435897437,4187.179487179489,0.0,2047.0,2048.0,0.0,0.0,4.0,4.0,4.0,4.0,0.0,4.0,4.0,4.0,4.0,0.0,4.0,4.0,4.0,4.0,4.0,4.0
25.0,0.0,4181.538461538463,4169.23076923077,4186.666666666668,4186.153846153848,4186.666666666668,4193.333333333335,4176.923076923078,4177.94871794872,4193.333333333335,4184.102564102565,4175.897435897437,4207.179487179489,4189.23076923077,4182.051282051283,0.0,2047.0,2048.0,0.0,0.0,4.0,4.0,4.0,4.0,0.0,4.0,4.0,4.0,4.0,0.0,4.0,4.0,4.0,4.0,4.0,4.0
26.0,0.0,4183.589743589745,4169.743589743592,4195.384615384617,4188.20512820513,4198.97435897436,4189.743589743592,4180.512820512822,4177.94871794872,4189.23076923077,4185.641025641027,4174.871794871797,4209.23076923077,4180.512820512822,4180.000000000002,0.0,2047.0,2048.0,0.0,0.0,4.0,4.0,4.0,4.0,0.0,4.0,4.0,4.0,4.0,0.0,4.0,4.0,4.0,4.0,4.0,4.0
27.0,0.0,4193.846153846155,4183.589743589745,4205.128205128207,4189.743589743592,4184.102564102565,4194.871794871797,4184.615384615386,4177.94871794872,4192.8205128205145,4186.153846153848,4174.871794871797,4210.769230769232,4190.256410256412,4194.871794871797,0.0,2047.0,2048.0,0.0,0.0,4.0,4.0,4.0,4.0,0.0,4.0,4.0,4.0,4.0,0.0,4.0,4.0,4.0,4.0,4.0,4.0
28.0,0.0,4196.923076923078,4190.256410256412,4213.333333333335,4193.846153846155,4193.333333333335,4195.384615384617,4182.051282051283,4178.97435897436,4196.923076923078,4184.615384615386,4179.487179487181,4220.512820512822,4196.410256410258,4204.615384615386,0.0,2047.0,2048.0,0.0,0.0,4.0,4.0,4.0,4.0,0.0,4.0,4.0,4.0,4.0,0.0,4.0,4.0,4.0,4.0,4.0,4.0
29.0,0.0,4189.23076923077,4175.384615384617,4200.512820512822,4190.769230769232,4188.71794871795,4188.71794871795,4175.384615384617,4180.000000000002,4193.846153846155,4185.128205128207,4178.97435897436,4210.769230769232,4188.20512820513,4191.794871794873,0.0,2047.0,2048.0,0.0,0.0,4.0,4.0,4.0,4.0,0.0,4.0,4.0,4.0,4.0,0.0,4.0,4.0,4.0,4.0,4.0,4.0
30.0,0.0,4184.102564102565,4168.71794871795,4188.20512820513,4181.0256410256425,4186.666666666668,4185.641025641027,4170.769230769232,4173.846153846155,4189.743589743592,4186.153846153848,4165.641025641027,4201.538461538463,4182.051282051283,4177.94871794872,0.0,2047.0,2048.0,0.0,0.0,4.0,4.0,4.0,4.0,0.0,4.0,4.0,4.0,4.0,0.0,4.0,4.0,4.0,4.0,4.0,4.0
31.0,0.0,4187.179487179489,4178.97435897436,4203.589743589745,4177.435897435899,4200.512820512822,4186.153846153848,4170.769230769232,4168.20512820513,4190.256410256412,4186.666666666668,4164.615384615386,4210.769230769232,4183.076923076925,4179.487179487181,0.0,2047.0,2048.0,0.0,0.0,4.0,4.0,4.0,4.0,0.0,4.0,4.0,4.0,4.0,0.0,4.0,4.0,4.0,4.0,4.0,4.0
32.0,0.0,4190.256410256412,4186.666666666668,4205.128205128207,4182.564102564104,4181.538461538463,4184.615384615386,4170.769230769232,4173.846153846155,4192.307692307694,4185.641025641027,4172.8205128205145,4206.666666666668,4191.282051282053,4188.71794871795,0.0,2047.0,2048.0,0.0,0.0,4.0,4.0,4.0,4.0,0.0,4.0,4.0,4.0,4.0,0.0,4.0,4.0,4.0,4.0,4.0,4.0
33.0,0.0,4196.923076923078,4193.846153846155,4207.179487179489,4192.8205128205145,4188.71794871795,4186.666666666668,4171.794871794873,4180.512820512822,4191.794871794873,4184.615384615386,4175.384615384617,4214.3589743589755,4195.897435897437,4195.897435897437,0.0,2047.0,2048.0,0.0,0.0,4.0,4.0,4.0,4.0,0.0,4.0,4.0,4.0,4.0,0.0,4.0,4.0,4.0,4.0,4.0,4.0
34.0,0.0,4202.051282051283,4203.076923076925,4207.692307692309,4201.0256410256425,4192.8205128205145,4189.743589743592,4177.94871794872,4181.0256410256425,4194.871794871797,4185.128205128207,4183.076923076925,4218.46153846154,4198.46153846154,4200.512820512822,0.0,2047.0,2048.0,0.0,0.0,4.0,4.0,4.0,4.0,0.0,4.0,4.0,4.0,4.0,0.0,4.0,4.0,4.0,4.0,4.0,4.0
35.0,0.0,4201.538461538463,4207.179487179489,4206.153846153848,4200.512820512822,4187.692307692309,4188.20512820513,4178.46153846154,4172.307692307694,4188.71794871795,4185.641025641027,4187.692307692309,4209.23076923077,4202.564102564104,4198.97435897436,0.0,2047.0,2048.0,0.0,0.0,4.0,4.0,4.0,4.0,0.0,4.0,4.0,4.0,4.0,0.0,4.0,4.0,4.0,4.0,4.0,4.0
36.0,0.0,4205.128205128207,4212.307692307694,4213.333333333335,4200.000000000002,4195.897435897437,4186.666666666668,4168.71794871795,4167.692307692309,4184.102564102565,4185.128205128207,4185.641025641027,4213.846153846155,4209.23076923077,4198.97435897436,0.0,2047.0,2048.0,0.0,0.0,4.0,4.0,4.0,4.0,0.0,4.0,4.0,4.0,4.0,0.0,4.0,4.0,4.0,4.0,4.0,4.0
37.0,0.0,4206.153846153848,4214.3589743589755,4200.512820512822,4203.076923076925,4182.564102564104,4183.076923076925,4164.615384615386,4174.871794871797,4192.8205128205145,4186.153846153848,4186.666666666668,4210.256410256412,4209.743589743592,4202.051282051283,0.0,2047.0,2048.0,0.0,0.0,4.0,4.0,4.0,4.0,0.0,4.0,4.0,4.0,4.0,0.0,4.0,4.0,4.0,4.0,4.0,4.0
38.0,0.0,4204.102564102565,4208.20512820513,4199.487179487181,4202.051282051283,4192.8205128205145,4176.923076923078,4169.743589743592,4173.333333333335,4192.8205128205145,4185.641025641027,4183.076923076925,4211.282051282053,4202.051282051283,4200.000000000002,0.0,2047.0,2048.0,0.0,0.0,4.0,4.0,4.0,4.0,0.0,4.0,4.0,4.0,4.0,0.0,4.0,4.0,4.0,4.0,4.0,4.0
39.0,0.0,4197.94871794872,4205.641025641027,4203.589743589745,4200.000000000002,4193.333333333335,4175.384615384617,4169.23076923077,4165.641025641027,4183.076923076925,4184.102564102565,4178.97435897436,4211.282051282053,4202.564102564104,4196.410256410258,0.0,2047.0,2048.0,0.0,0.0,4.0,4.0,4.0,4.0,0.0,4.0,4.0,4.0,4.0,0.0,4.0,4.0,4.0,4.0,4.0,4.0
40.0,0.0,4194.871794871797,4211.794871794873,4197.94871794872,4196.923076923078,4183.076923076925,4178.46153846154,4164.102564102565,4170.769230769232,4187.179487179489,4184.615384615386,4183.589743589745,4208.71794871795,4205.641025641027,4195.897435897437,0.0,2047.0,2048.0,0.0,0.0,4.0,4.0,4.0,4.0,0.0,4.0,4.0,4.0,4.0,0.0,4.0,4.0,4.0,4.0,4.0,4.0
41.0,0.0,4201.0256410256425,4214.3589743589755,4203.589743589745,4194.3589743589755,4195.897435897437,4179.487179487181,4164.615384615386,4177.94871794872,4197.94871794872,4185.641025641027,4183.589743589745,4215.384615384617,4204.615384615386,4200.000000000002,0.0,2047.0,2048.0,0.0,0.0,4.0,4.0,4.0,4.0,0.0,4.0,4.0,4.0,4.0,0.0,4.0,4.0,4.0,4.0,4.0,4.0
42.0,0.0,4203.589743589745,4213.846153846155,4198.97435897436,4195.897435897437,4182.564102564104,4181.538461538463,4168.71794871795,4175.897435897437,4194.871794871797,4185.128205128207,4186.153846153848,4212.307692307694,4212.307692307694,4204.615384615386,0.0,2047.0,2048.0,0.0,0.0,4.0,4.0,4.0,4.0,0.0,4.0,4.0,4.0,4.0,0.0,4.0,4.0,4.0,4.0,4.0,4.0
43.0,0.0,4207.692307692309,4220.000000000002,4210.769230769232,4204.102564102565,4191.282051282053,4187.179487179489,4172.8205128205145,4175.384615384617,4191.794871794873,4184.615384615386,4196.410256410258,4220.000000000002,4214.3589743589755,4205.128205128207,0.0,2047.0,2048.0,0.0,0.0,4.0,4.0,4.0,4.0,0.0,4.0,4.0,4.0,4.0,0.0,4.0,4.0,4.0,4.0,4.0,4.0
44.0,0.0,4205.641025641027,4226.666666666668,4216.923076923078,4209.23076923077,4200.000000000002,4187.179487179489,4172.307692307694,4174.3589743589755,4197.435897435899,4185.128205128207,4188.71794871795,4216.410256410258,4200.000000000002,4198.97435897436,0.0,2047.0,2048.0,0.0,0.0,4.0,4.0,4.0,4.0,0.0,4.0,4.0,4.0,4.0,0.0,4.0,4.0,4.0,4.0,4.0,4.0
45.0,0.0,4198.97435897436,4225.128205128207,4195.897435897437,4199.487179487181,4183.076923076925,4181.0256410256425,4167.692307692309,4172.307692307694,4197.94871794872,4184.102564102565,4176.410256410258,4201.538461538463,4192.307692307694,4193.333333333335,0.0,2047.0,2048.0,0.0,0.0,4.0,4.0,4.0,4.0,0.0,4.0,4.0,4.0,4.0,0.0,4.0,4.0,4.0,4.0,4.0,4.0
46.0,0.0,4200.000000000002,4216.410256410258,4198.97435897436,4190.256410256412,4190.769230769232,4180.512820512822,4168.20512820513,4174.871794871797,4193.333333333335,4185.128205128207,4182.051282051283,4210.769230769232,4197.435897435899,4196.923076923078,0.0,2047.0,2048.0,0.0,0.0,4.0,4.0,4.0,4.0,0.0,4.0,4.0,4.0,4.0,0.0,4.0,4.0,4.0,4.0,4.0,4.0
47.0,0.0,4203.589743589745,4216.410256410258,4208.20512820513,4195.897435897437,4186.666666666668,4181.0256410256425,4174.871794871797,4180.512820512822,4193.333333333335,4185.641025641027,4190.769230769232,4210.256410256412,4202.051282051283,4202.564102564104,0.0,2047.0,2048.0,0.0,0.0,4.0,4.0,4.0,4.0,0.0,4.0,4.0,4.0,4.0,0.0,4.0,4.0,4.0,4.0,4.0,4.0
48.0,0.0,4211.282051282053,4234.3589743589755,4215.384615384617,4203.589743589745,4189.743589743592,4178.46153846154,4176.410256410258,4182.051282051283,4194.871794871797,4185.128205128207,4192.307692307694,4213.846153846155,4203.589743589745,4204.102564102565,0.0,2047.0,2048.0,0.0,0.0,4.0,4.0,4.0,4.0,0.0,4.0,4.0,4.0,4.0,0.0,4.0,4.0,4.0,4.0,4.0,4.0
49.0,0.0,4211.794871794873,4241.0256410256425,4207.179487179489,4201.538461538463,4190.769230769232,4172.307692307694,4166.666666666668,4177.435897435899,4192.8205128205145,4185.128205128207,4192.8205128205145,4218.46153846154,4203.589743589745,4204.102564102565,0.0,2047.0,2048.0,0.0,0.0,4.0,4.0,4.0,4.0,0.0,4.0,4.0,4.0,4.0,0.0,4.0,4.0,4.0,4.0,4.0,4.0
50.0,0.0,4200.512820512822,4232.8205128205145,4190.256410256412,4198.97435897436,4185.128205128207,4167.179487179489,4162.564102564104,4170.769230769232,4187.692307692309,4184.102564102565,4188.20512820513,4206.666666666668,4201.538461538463,4201.538461538463,0.0,2047.0,2048.0,0.0,0.0,4.0,4.0,4.0,4.0,0.0,4.0,4.0,4.0,4.0,0.0,4.0,4.0,4.0,4.0,4.0,4.0
51.0,0.0,4202.051282051283,4235.897435897437,4210.256410256412,4198.46153846154,4203.589743589745,4171.794871794873,4176.923076923078,4167.692307692309,4182.564102564104,4184.102564102565,4180.000000000002,4209.743589743592,4203.076923076925,4197.94871794872,0.0,2047.0,2048.0,0.0,0.0,4.0,4.0,4.0,4.0,0.0,4.0,4.0,4.0,4.0,0.0,4.0,4.0,4.0,4.0,4.0,4.0
52.0,0.0,4213.333333333335,4245.128205128207,4218.46153846154,4205.128205128207,4188.71794871795,4177.435897435899,4184.615384615386,4172.8205128205145,4188.20512820513,4184.615384615386,4188.20512820513,4212.307692307694,4212.307692307694,4205.641025641027,0.0,2047.0,2048.0,0.0,0.0,4.0,4.0,4.0,4.0,0.0,4.0,4.0,4.0,4.0,0.0,4.0,4.0,4.0,4.0,4.0,4.0
53.0,0.0,4217.94871794872,4247.692307692309,4212.307692307694,4215.384615384617,4185.128205128207,4176.410256410258,4171.282051282053,4173.846153846155,4191.282051282053,4185.641025641027,4196.923076923078,4216.923076923078,4212.307692307694,4217.435897435899,0.0,2047.0,2048.0,0.0,0.0,4.0,4.0,4.0,4.0,0.0,4.0,4.0,4.0,4.0,0.0,4.0,4.0,4.0,4.0,4.0,4.0
54.0,0.0,4210.256410256412,4245.641025641027,4206.153846153848,4204.615384615386,4192.8205128205145,4176.923076923078,4160.512820512822,4170.256410256412,4186.153846153848,4185.641025641027,4189.23076923077,4220.512820512822,4201.538461538463,4211.282051282053,0.0,2047.0,2048.0,0.0,0.0,4.0,4.0,4.0,4.0,0.0,4.0,4.0,4.0,4.0,0.0,4.0,4.0,4.0,4.0,4.0,4.0
55.0,0.0,4200.512820512822,4241.0256410256425,4191.794871794873,4199.487179487181,4184.102564102565,4178.97435897436,4167.179487179489,4171.794871794873,4189.23076923077,4185.128205128207,4186.666666666668,4207.179487179489,4202.051282051283,4197.94871794872,0.0,2047.0,2048.0,0.0,0.0,4.0,4.0,4.0,4.0,0.0,4.0,4.0,4.0,4.0,0.0,4.0,4.0,4.0,4.0,4.0,4.0
56.0,0.0,4204.615384615386,4243.589743589745,4208.20512820513,4212.8205128205145,4202.051282051283,4177.94871794872,4173.846153846155,4172.8205128205145,4192.8205128205145,4185.128205128207,4191.282051282053,4210.256410256412,4208.20512820513,4203.076923076925,0.0,2047.0,2048.0,0.0,0.0,4.0,4.0,4.0,4.0,0.0,4.0,4.0,4.0,4.0,0.0,4.0,4.0,4.0,4.0,4.0,4.0
57.0,0.0,4216.923076923078,4253.333333333335,4221.0256410256425,4209.743589743592,4192.307692307694,4173.846153846155,4167.692307692309,4172.307692307694,4190.256410256412,4184.102564102565,4192.8205128205145,4214.3589743589755,4210.256410256412,4216.923076923078,0.0,2047.0,2048.0,0.0,0.0,4.0,4.0,4.0,4.0,0.0,4.0,4.0,4.0,4.0,0.0,4.0,4.0,4.0,4.0,4.0,4.0
58.0,0.0,4222.564102564104,4256.410256410258,4212.307692307694,4205.128205128207,4185.128205128207,4173.846153846155,4165.641025641027,4174.871794871797,4190.256410256412,4184.615384615386,4192.8205128205145,4217.94871794872,4213.333333333335,4219.487179487181,0.0,2047.0,2048.0,0.0,0.0,4.0,4.0,4.0,4.0,0.0,4.0,4.0,4.0,4.0,0.0,4.0,4.0,4.0,4.0,4.0,4.0
59.0,0.0,4214.3589743589755,4248.71794871795,4210.769230769232,4220.512820512822,4197.435897435899,4177.435897435899,4173.333333333335,4179.487179487181,4193.333333333335,4185.641025641027,4195.897435897437,4224.615384615386,4216.923076923078,4216.923076923078,0.0,2047.0,2048.0,0.0,0.0,4.0,4.0,4.0,4.0,0.0,4.0,4.0,4.0,4.0,0.0,4.0,4.0,4.0,4.0,4.0,4.0
60.0,0.0,4204.102564102565,4244.102564102565,4204.615384615386,4217.435897435899,4185.128205128207,4180.512820512822,4175.897435897437,4182.051282051283,4197.435897435899,4184.615384615386,4198.46153846154,4214.3589743589755,4211.282051282053,4212.307692307694,0.0,2047.0,2048.0,0.0,0.0,4.0,4.0,4.0,4.0,0.0,4.0,4.0,4.0,4.0,0.0,4.0,4.0,4.0,4.0,4.0,4.0
61.0,0.0,4211.794871794873,4248.20512820513,4213.333333333335,4200.512820512822,4193.333333333335,4182.564102564104,4176.410256410258,4181.538461538463,4195.897435897437,4185.128205128207,4197.435897435899,4213.846153846155,4204.102564102565,4210.769230769232,0.0,2047.0,2048.0,0.0,0.0,4.0,4.0,4.0,4.0,0.0,4.0,4.0,4.0,4.0,0.0,4.0,4.0,4.0,4.0,4.0,4.0
62.0,0.0,4221.0256410256425,4256.923076923078,4216.923076923078,4208.71794871795,4189.23076923077,4184.615384615386,4178.97435897436,4185.641025641027,4192.307692307694,4186.153846153848,4201.538461538463,4214.871794871797,4209.743589743592,4214.871794871797,0.0,2047.0,2048.0,0.0,0.0,4.0,4.0,4.0,4.0,0.0,4.0,4.0,4.0,4.0,0.0,4.0,4.0,4.0,4.0,4.0,4.0
63.0,0.0,4215.384615384617,4258.46153846154,4208.20512820513,4217.435897435899,4188.20512820513,4187.692307692309,4178.97435897436,4186.666666666668,4190.769230769232,4185.641025641027,4199.487179487181,4216.923076923078,4209.743589743592,4208.71794871795,0.0,2047.0,2048.0,0.0,0.0,4.0,4.0,4.0,4.0,0.0,4.0,4.0,4.0,4.0,0.0,4.0,4.0,4.0,4.0,4.0,4.0
64.0,0.0,4207.179487179489,4244.615384615386,4207.692307692309,4203.589743589745,4199.487179487181,4184.615384615386,4173.333333333335,4179.487179487181,4193.333333333335,4185.128205128207,4191.282051282053,4222.051282051283,4206.153846153848,4197.435897435899,708.0,2047.0,2048.0,0.0,0.0,4.0,4.0,4.0,4.0,0.0,4.0,4.0,4.0,4.0,0.0,4.0,4.0,4.0,4.0,4.0,4.0
65.0,0.0,4202.051282051283,4236.410256410258,4198.97435897436,4191.282051282053,4183.589743589745,4183.076923076925,4172.307692307694,4182.564102564104,4195.897435897437,4184.615384615386,4187.692307692309,4213.333333333335,4206.666666666668,4196.410256410258,836.0,2047.0,2048.0,0.0,0.0,4.0,4.0,4.0,4.0,0.0,4.0,4.0,4.0,4.0,0.0,4.0,4.0,4.0,4.0,4.0,4.0
66.0,0.0,4191.794871794873,4236.410256410258,4192.307692307694,4191.794871794873,4191.794871794873,4186.666666666668,4178.46153846154,4183.589743589745,4190.256410256412,4183.589743589745,4180.000000000002,4211.282051282053,4189.23076923077,4189.23076923077,800.0,2047.0,2048.0,0.0,0.0,4.0,4.0,4.0,4.0,0.0,4.0,4.0,4.0,4.0,0.0,4.0,4.0,4.0,4.0,4.0,4.0
67.0,0.0,4182.564102564104,4229.743589743592,4183.076923076925,4197.435897435899,4191.282051282053,4187.179487179489,4178.97435897436,4175.897435897437,4187.179487179489,4184.102564102565,4175.384615384617,4201.0256410256425,4176.923076923078,4176.410256410258,811.0,2047.0,2048.0,0.0,0.0,4.0,4.0,4.0,4.0,0.0,4.0,4.0,4.0,4.0,0.0,4.0,4.0,4.0,4.0,4.0,4.0
68.0,0.0,4195.384615384617,4231.282051282053,4190.256410256412,4201.538461538463,4189.743589743592,4185.641025641027,4175.384615384617,4177.435897435899,4189.743589743592,4184.102564102565,4180.000000000002,4196.923076923078,4190.256410256412,4187.692307692309,0.0,2047.0,2048.0,0.0,0.0,4.0,4.0,4.0,4.0,0.0,4.0,4.0,4.0,4.0,0.0,4.0,4.0,4.0,4.0,4.0,4.0
69.0,0.0,4210.769230769232,4244.615384615386,4215.384615384617,4201.538461538463,4202.564102564104,4186.666666666668,4175.384615384617,4180.000000000002,4188.20512820513,4184.102564102565,4180.000000000002,4214.3589743589755,4193.333333333335,4200.512820512822,791.0,2047.0,2048.0,0.0,0.0,4.0,4.0,4.0,4.0,0.0,4.0,4.0,4.0,4.0,0.0,4.0,4.0,4.0,4.0,4.0,4.0
70.0,0.0,4198.97435897436,4246.666666666668,4203.076923076925,4197.435897435899,4184.102564102565,4189.23076923077,4174.3589743589755,4180.000000000002,4184.102564102565,4184.615384615386,4171.794871794873,4208.71794871795,4183.076923076925,4189.23076923077,846.0,2047.0,2048.0,0.0,0.0,4.0,4.0,4.0,4.0,0.0,4.0,4.0,4.0,4.0,0.0,4.0,4.0,4.0,4.0,4.0,4.0
71.0,0.0,4185.641025641027,4240.000000000002,4193.333333333335,4194.871794871797,4192.307692307694,4192.8205128205145,4175.897435897437,4185.128205128207,4187.692307692309,4185.128205128207,4173.333333333335,4206.153846153848,4185.128205128207,4178.46153846154,837.0,2047.0,2048.0,0.0,0.0,4.0,4.0,4.0,4.0,0.0,4.0,4.0,4.0,4.0,0.0,4.0,4.0,4.0,4.0,4.0,4.0
72.0,0.0,4188.71794871795,4234.871794871797,4190.769230769232,4188.20512820513,4195.384615384617,4194.3589743589755,4183.076923076925,4193.333333333335,4200.512820512822,4184.615384615386,4186.666666666668,4209.23076923077,4195.897435897437,4181.0256410256425,613.0,2047.0,2048.0,0.0,0.0,4.0,4.0,4.0,4.0,0.0,4.0,4.0,4.0,4.0,0.0,4.0,4.0,4.0,4.0,4.0,4.0
73.0,0.0,4194.871794871797,4233.846153846155,4187.692307692309,4185.641025641027,4184.102564102565,4191.794871794873,4186.666666666668,4189.743589743592,4200.512820512822,4185.641025641027,4184.615384615386,4206.666666666668,4194.3589743589755,4186.153846153848,0.0,2047.0,2048.0,0.0,0.0,4.0,4.0,4.0,4.0,0.0,4.0,4.0,4.0,4.0,0.0,4.0,4.0,4.0,4.0,4.0,4.0
74.0,0.0,4199.487179487181,4238.46153846154,4209.23076923077,4193.846153846155,4195.384615384617,4192.8205128205145,4185.641025641027,4183.589743589745,4193.333333333335,4186.153846153848,4169.743589743592,4213.333333333335,4188.71794871795,4194.3589743589755,861.0,2047.0,2048.0,0.0,0.0,4.0,4.0,4.0,4.0,0.0,4.0,4.0,4.0,4.0,0.0,4.0,4.0,4.0,4.0,4.0,4.0
75.0,0.0,4206.666666666668,4247.179487179489,4215.897435897437,4200.000000000002,4186.153846153848,4198.46153846154,4191.282051282053,4190.769230769232,4198.97435897436,4184.615384615386,4178.97435897436,4213.333333333335,4196.410256410258,4203.589743589745,832.0,2047.0,2048.0,0.0,0.0,4.0,4.0,4.0,4.0,0.0,4.0,4.0,4.0,4.0,0.0,4.0,4.0,4.0,4.0,4.0,4.0
76.0,0.0,4214.3589743589755,4248.71794871795,4214.3589743589755,4202.051282051283,4193.333333333335,4206.153846153848,4194.871794871797,4196.923076923078,4201.0256410256425,4185.128205128207,4196.923076923078,4218.97435897436,4202.564102564104,4204.102564102565,855.0,2047.0,2048.0,0.0,0.0,4.0,4.0,4.0,4.0,0.0,4.0,4.0,4.0,4.0,0.0,4.0,4.0,4.0,4.0,4.0,4.0
77.0,0.0,4205.641025641027,4244.615384615386,4205.641025641027,4203.076923076925,4194.3589743589755,4208.20512820513,4190.256410256412,4197.94871794872,4198.97435897436,4185.128205128207,4194.3589743589755,4221.538461538463,4204.615384615386,4201.0256410256425,601.0,2047.0,2048.0,0.0,0.0,4.0,4.0,4.0,4.0,0.0,4.0,4.0,4.0,4.0,0.0,4.0,4.0,4.0,4.0,4.0,4.0
78.0,0.0,4196.410256410258,4246.153846153848,4193.333333333335,4202.564102564104,4182.564102564104,4204.102564102565,4191.282051282053,4207.692307692309,4207.692307692309,4184.615384615386,4190.769230769232,4217.94871794872,4207.179487179489,4200.000000000002,861.0,2047.0,2048.0,0.0,0.0,4.0,4.0,4.0,4.0,0.0,4.0,4.0,4.0,4.0,0.0,4.0,4.0,4.0,4.0,4.0,4.0
79.0,0.0,4204.102564102565,4248.20512820513,4204.615384615386,4203.589743589745,4197.435897435899,4203.076923076925,4192.8205128205145,4212.8205128205145,4209.743589743592,4185.128205128207,4199.487179487181,4223.076923076925,4203.076923076925,4200.512820512822,832.0,2047.0,2048.0,0.0,0.0,4.0,4.0,4.0,4.0,0.0,4.0,4.0,4.0,4.0,0.0,4.0,4.0,4.0,4.0,4.0,4.0
80.0,0.0,4205.128205128207,4241.0256410256425,4202.051282051283,4197.435897435899,4188.71794871795,4194.871794871797,4182.564102564104,4196.410256410258,4192.8205128205145,4185.128205128207,4193.333333333335,4210.256410256412,4198.46153846154,4202.051282051283,855.0,2047.0,2048.0,0.0,0.0,4.0,4.0,4.0,4.0,0.0,4.0,4.0,4.0,4.0,0.0,4.0,4.0,4.0,4.0,4.0,4.0
81.0,0.0,4198.46153846154,4233.846153846155,4198.97435897436,4190.256410256412,4190.769230769232,4186.666666666668,4177.435897435899,4177.94871794872,4182.564102564104,4184.102564102565,4174.871794871797,4206.666666666668,4192.8205128205145,4200.512820512822,601.0,2047.0,2048.0,0.0,0.0,4.0,4.0,4.0,4.0,0.0,4.0,4.0,4.0,4.0,0.0,4.0,4.0,4.0,4.0,4.0,4.0
82.0,0.0,4194.3589743589755,4231.282051282053,4199.487179487181,4194.3589743589755,4192.8205128205145,4189.743589743592,4181.0256410256425,4182.564102564104,4191.282051282053,4184.102564102565,4181.0256410256425,4210.769230769232,4187.692307692309,4194.871794871797,861.0,2047.0,2048.0,0.0,0.0,4.0,4.0,4.0,4.0,0.0,4.0,4.0,4.0,4.0,0.0,4.0,4.0,4.0,4.0,4.0,4.0
83.0,0.0,4185.128205128207,4224.615384615386,4180.512820512822,4191.794871794873,4183.076923076925,4189.743589743592,4176.410256410258,4189.743589743592,4193.333333333335,4184.615384615386,4189.23076923077,4202.051282051283,4184.102564102565,4187.179487179489,832.0,2047.0,2048.0,0.0,0.0,4.0,4.0,4.0,4.0,0.0,4.0,4.0,4.0,4.0,0.0,4.0,4.0,4.0,4.0,4.0,4.0
84.0,0.0,4176.923076923078,4216.923076923078,4177.94871794872,4182.051282051283,4197.94871794872,4181.0256410256425,4167.692307692309,4178.46153846154,4182.564102564104,4185.128205128207,4177.94871794872,4206.153846153848,4176.923076923078,4183.076923076925,855.0,2047.0,2048.0,0.0,0.0,4.0,4.0,4.0,4.0,0.0,4.0,4.0,4.0,4.0,0.0,4.0,4.0,4.0,4.0,4.0,4.0
85.0,0.0,4181.0256410256425,4217.435897435899,4180.000000000002,4182.564102564104,4187.179487179489,4178.46153846154,4165.128205128207,4174.3589743589755,4184.615384615386,4185.128205128207,4172.8205128205145,4204.615384615386,4175.384615384617,4190.769230769232,601.0,2047.0,2048.0,0.0,0.0,4.0,4.0,4.0,4.0,0.0,4.0,4.0,4.0,4.0,0.0,4.0,4.0,4.0,4.0,4.0,4.0
86.0,0.0,4192.8205128205145,4225.128205128207,4191.282051282053,4185.128205128207,4188.71794871795,4183.589743589745,4170.256410256412,4188.20512820513,4195.897435897437,4184.102564102565,4180.512820512822,4206.666666666668,4183.589743589745,4197.94871794872,861.0,2047.0,2048.0,0.0,0.0,4.0,4.0,4.0,4.0,0.0,4.0,4.0,4.0,4.0,0.0,4.0,4.0,4.0,4.0,4.0,4.0
87.0,0.0,4195.384615384617,4229.743589743592,4201.0256410256425,4188.71794871795,4195.897435897437,4188.20512820513,4177.94871794872,4195.384615384617,4196.410256410258,4183.589743589745,4190.769230769232,4213.846153846155,4196.410256410258,4200.000000000002,832.0,2047.0,2048.0,0.0,0.0,4.0,4.0,4.0,4.0,0.0,4.0,4.0,4.0,4.0,0.0,4.0,4.0,4.0,4.0,4.0,4.0
88.0,0.0,4188.71794871795,4229.743589743592,4184.615384615386,4194.871794871797,4181.0256410256425,4191.794871794873,4184.615384615386,4188.20512820513,4190.769230769232,4184.615384615386,4189.743589743592,4202.564102564104,4191.794871794873,4197.435897435899,855.0,2047.0,2048.0,0.0,0.0,4.0,4.0,4.0,4.0,0.0,4.0,4.0,4.0,4.0,0.0,4.0,4.0,4.0,4.0,4.0,4.0
89.0,0.0,4182.564102564104,4222.051282051283,4184.102564102565,4189.23076923077,4195.384615384617,4192.8205128205145,4185.128205128207,4181.0256410256425,4188.20512820513,4185.641025641027,4173.333333333335,4198.97435897436,4171.282051282053,4184.615384615386,601.0,2047.0,2048.0,0.0,0.0,4.0,4.0,4.0,4.0,0.0,4.0,4.0,4.0,4.0,0.0,4.0,4.0,4.0,4.0,4.0,4.0
90.0,0.0,4172.307692307694,4209.743589743592,4181.0256410256425,4177.94871794872,4189.743589743592,4189.743589743592,4184.102564102565,4180.512820512822,4190.256410256412,4184.615384615386,4161.0256410256425,4192.8205128205145,4161.538461538463,4173.333333333335,861.0,2047.0,2048.0,0.0,0.0,4.0,4.0,4.0,4.0,0.0,4.0,4.0,4.0,4.0,0.0,4.0,4.0,4.0,4.0,4.0,4.0
91.0,0.0,4174.871794871797,4216.410256410258,4177.94871794872,4181.538461538463,4187.179487179489,4188.20512820513,4185.641025641027,4181.0256410256425,4193.333333333335,4184.102564102565,4169.23076923077,4195.384615384617,4168.20512820513,4180.000000000002,832.0,2047.0,2048.0,0.0,0.0,4.0,4.0,4.0,4.0,0.0,4.0,4.0,4.0,4.0,0.0,4.0,4.0,4.0,4.0,4.0,4.0
92.0,0.0,4195.897435897437,4235.897435897437,4194.3589743589755,4190.256410256412,4198.46153846154,4186.153846153848,4184.102564102565,4183.589743589745,4193.333333333335,4184.102564102565,4184.102564102565,4209.743589743592,4188.71794871795,4196.923076923078,855.0,2047.0,2048.0,0.0,0.0,4.0,4.0,4.0,4.0,0.0,4.0,4.0,4.0,4.0,0.0,4.0,4.0,4.0,4.0,4.0,4.0
93.0,0.0,4204.615384615386,4236.923076923078,4197.94871794872,4192.307692307694,4187.692307692309,4185.128205128207,4181.538461538463,4191.794871794873,4195.384615384617,4185.128205128207,4193.846153846155,4208.71794871795,4198.46153846154,4206.153846153848,601.0,2047.0,2048.0,0.0,0.0,4.0,4.0,4.0,4.0,0.0,4.0,4.0,4.0,4.0,0.0,4.0,4.0,4.0,4.0,4.0,4.0
94.0,0.0,4193.846153846155,4228.20512820513,4195.897435897437,4198.46153846154,4195.384615384617,4190.256410256412,4186.153846153848,4195.384615384617,4198.46153846154,4186.666666666668,4192.8205128205145,4214.871794871797,4182.051282051283,4197.94871794872,861.0,2047.0,2048.0,0.0,0.0,4.0,4.0,4.0,4.0,0.0,4.0,4.0,4.0,4.0,0.0,4.0,4.0,4.0,4.0,4.0,4.0
95.0,0.0,4183.076923076925,4224.615384615386,4181.538461538463,4196.410256410258,4187.179487179489,4192.307692307694,4185.128205128207,4187.692307692309,4194.871794871797,4185.641025641027,4186.153846153848,4210.256410256412,4176.410256410258,4184.102564102565,832.0,2047.0,2048.0,0.0,0.0,4.0,4.0,4.0,4.0,0.0,4.0,4.0,4.0,4.0,0.0,4.0,4.0,4.0,4.0,4.0,4.0
96.0,0.0,4191.282051282053,4230.256410256412,4187.179487179489,4191.282051282053,4185.128205128207,4188.71794871795,4176.410256410258,4177.435897435899,4186.153846153848,4184.102564102565,4190.769230769232,4210.256410256412,4192.8205128205145,4191.794871794873,855.0,2047.0,2048.0,0.0,0.0,4.0,4.0,4.0,4.0,0.0,4.0,4.0,4.0,4.0,0.0,4.0,4.0,4.0,4.0,4.0,4.0
97.0,0.0,4205.641025641027,4231.794871794873,4204.102564102565,4194.871794871797,4196.410256410258,4187.179487179489,4178.97435897436,4176.923076923078,4186.153846153848,4186.153846153848,4198.97435897436,4221.0256410256425,4203.076923076925,4208.20512820513,601.0,2047.0,2048.0,0.0,0.0,4.0,4.0,4.0,4.0,0.0,4.0,4.0,4.0,4.0,0.0,4.0,4.0,4.0,4.0,4.0,4.0
98.0,0.0,4197.435897435899,4221.0256410256425,4182.564102564104,4192.8205128205145,4183.076923076925,4185.128205128207,4181.0256410256425,4179.487179487181,4189.743589743592,4187.179487179489,4192.8205128205145,4210.769230769232,4196.923076923078,4199.487179487181,861.0,2047.0,2048.0,0.0,0.0,4.0,4.0,4.0,4.0,0.0,4.0,4.0,4.0,4.0,0.0,4.0,4.0,4.0,4.0,4.0,4.0
99.0,0.0,4190.769230769232,4217.435897435899,4180.000000000002,4186.153846153848,4197.435897435899,4185.128205128207,4170.769230769232,4175.384615384617,4186.666666666668,4184.102564102565,4178.46153846154,4210.256410256412,4190.769230769232,4189.743589743592,832.0,2047.0,2048.0,0.0,0.0,4.0,4.0,4.0,4.0,0.0,4.0,4.0,4.0,4.0,0.0,4.0,4.0,4.0,4.0,4.0,4.0
100.0,0.0,4196.923076923078,4224.615384615386,4189.743589743592,4187.692307692309,4194.3589743589755,4188.20512820513,4170.769230769232,4182.564102564104,4190.769230769232,4185.128205128207,4183.589743589745,4211.282051282053,4197.94871794872,4198.97435897436,855.0,2047.0,2048.0,0.0,0.0,4.0,4.0,4.0,4.0,0.0,4.0,4.0,4.0,4.0,0.0,4.0,4.0,4.0,4.0,4.0,4.0
101.0,0.0,4197.435897435899,4224.102564102565,4187.179487179489,4190.769230769232,4186.153846153848,4190.769230769232,4186.153846153848,4196.410256410258,4201.0256410256425,4187.179487179489,4200.000000000002,4211.794871794873,4211.282051282053,4207.179487179489,601.0,2047.0,2048.0,0.0,0.0,4.0,4.0,4.0,4.0,0.0,4.0,4.0,4.0,4.0,0.0,4.0,4.0,4.0,4.0,4.0,4.0
102.0,0.0,4192.307692307694,4217.435897435899,4196.410256410258,4181.538461538463,4198.97435897436,4189.743589743592,4189.23076923077,4192.8205128205145,4200.000000000002,4186.153846153848,4193.846153846155,4218.46153846154,4206.666666666668,4203.589743589745,861.0,2047.0,2048.0,0.0,0.0,4.0,4.0,4.0,4.0,0.0,4.0,4.0,4.0,4.0,0.0,4.0,4.0,4.0,4.0,4.0,4.0
103.0,0.0,4189.743589743592,4215.384615384617,4184.615384615386,4179.487179487181,4183.076923076925,4186.666666666668,4172.8205128205145,4176.410256410258,4188.20512820513,4185.641025641027,4177.435897435899,4206.153846153848,4187.179487179489,4195.384615384617,832.0,2047.0,2048.0,0.0,0.0,4.0,4.0,4.0,4.0,0.0,4.0,4.0,4.0,4.0,0.0,4.0,4.0,4.0,4.0,4.0,4.0
104.0,0.0,4187.179487179489,4210.256410256412,4171.282051282053,4186.153846153848,4188.71794871795,4185.128205128207,4168.71794871795,4165.128205128207,4181.0256410256425,4186.153846153848,4171.794871794873,4202.051282051283,4177.94871794872,4185.128205128207,855.0,2047.0,2048.0,0.0,0.0,4.0,4.0,4.0,4.0,0.0,4.0,4.0,4.0,4.0,0.0,4.0,4.0,4.0,4.0,4.0,4.0
105.0,0.0,4173.846153846155,4197.94871794872,4169.23076923077,4183.076923076925,4192.307692307694,4181.538461538463,4175.897435897437,4167.179487179489,4186.153846153848,4184.102564102565,4175.897435897437,4200.000000000002,4178.46153846154,4178.97435897436,601.0,2047.0,2048.0,0.0,0.0,4.0,4.0,4.0,4.0,0.0,4.0,4.0,4.0,4.0,0.0,4.0,4.0,4.0,4.0,4.0,4.0
106.0,0.0,4169.743589743592,4198.97435897436,4168.71794871795,4175.384615384617,4189.743589743592,4183.076923076925,4176.410256410258,4173.846153846155,4189.743589743592,4185.128205128207,4178.46153846154,4196.923076923078,4178.97435897436,4179.487179487181,861.0,2047.0,2048.0,0.0,0.0,4.0,4.0,4.0,4.0,0.0,4.0,4.0,4.0,4.0,0.0,4.0,4.0,4.0,4.0,4.0,4.0
107.0,0.0,4183.589743589745,4206.153846153848,4176.923076923078,4172.8205128205145,4200.512820512822,4194.871794871797,4176.410256410258,4176.410256410258,4188.71794871795,4187.692307692309,4179.487179487181,4208.20512820513,4182.051282051283,4184.102564102565,832.0,2047.0,2048.0,0.0,0.0,4.0,4.0,4.0,4.0,0.0,4.0,4.0,4.0,4.0,0.0,4.0,4.0,4.0,4.0,4.0,4.0
108.0,0.0,4187.179487179489,4204.102564102565,4169.743589743592,4172.307692307694,4180.000000000002,4193.846153846155,4175.897435897437,4174.3589743589755,4188.20512820513,4185.641025641027,4183.589743589745,4203.589743589745,4181.0256410256425,4188.20512820513,855.0,2047.0,2048.0,0.0,0.0,4.0,4.0,4.0,4.0,0.0,4.0,4.0,4.0,4.0,0.0,4.0,4.0,4.0,4.0,4.0,4.0
109.0,0.0,4182.564102564104,4202.051282051283,4173.846153846155,4176.410256410258,4186.666666666668,4183.076923076925,4172.307692307694,4168.71794871795,4185.641025641027,4184.615384615386,4178.97435897436,4201.0256410256425,4174.871794871797,4184.102564102565,601.0,2047.0,2048.0,0.0,0.0,4.0,4.0,4.0,4.0,0.0,4.0,4.0,4.0,4.0,0.0,4.0,4.0,4.0,4.0,4.0,4.0
110.0,0.0,4184.102564102565,4207.692307692309,4180.512820512822,4185.128205128207,4194.871794871797,4187.692307692309,4173.846153846155,4170.256410256412,4184.615384615386,4185.128205128207,4175.384615384617,4204.615384615386,4182.564102564104,4181.538461538463,861.0,2047.0,2048.0,0.0,0.0,4.0,4.0,4.0,4.0,0.0,4.0,4.0,4.0,4.0,0.0,4.0,4.0,4.0,4.0,4.0,4.0
111.0,0.0,4188.71794871795,4207.179487179489,4173.846153846155,4183.076923076925,4186.666666666668,4197.435897435899,4184.102564102565,4178.97435897436,4190.769230769232,4184.102564102565,4186.666666666668,4203.589743589745,4195.384615384617,4187.179487179489,832.0,2047.0,2048.0,0.0,0.0,4.0,4.0,4.0,4.0,0.0,4.0,4.0,4.0,4.0,0.0,4.0,4.0,4.0,4.0,4.0,4.0
112.0,0.0,4188.20512820513,4201.538461538463,4174.871794871797,4178.97435897436,4198.46153846154,4198.46153846154,4190.256410256412,4185.128205128207,4196.410256410258,4185.641025641027,4196.923076923078,4210.256410256412,4195.897435897437,4187.692307692309,855.0,2047.0,2048.0,0.0,0.0,4.0,4.0,4.0,4.0,0.0,4.0,4.0,4.0,4.0,0.0,4.0,4.0,4.0,4.0,4.0,4.0
113.0,0.0,4186.666666666668,4207.692307692309,4169.743589743592,4180.512820512822,4184.102564102565,4200.512820512822,4182.564102564104,4188.71794871795,4196.923076923078,4188.71794871795,4192.307692307694,4207.179487179489,4200.000000000002,4188.20512820513,601.0,2047.0,2048.0,0.0,0.0,4.0,4.0,4.0,4.0,0.0,4.0,4.0,4.0,4.0,0.0,4.0,4.0,4.0,4.0,4.0,4.0
114.0,0.0,4191.282051282053,4212.307692307694,4178.97435897436,4177.94871794872,4187.692307692309,4202.051282051283,4174.871794871797,4184.615384615386,4192.8205128205145,4187.692307692309,4185.641025641027,4208.20512820513,4194.871794871797,4190.769230769232,861.0,2047.0,2048.0,0.0,0.0,4.0,4.0,4.0,4.0,0.0,4.0,4.0,4.0,4.0,0.0,4.0,4.0,4.0,4.0,4.0,4.0
115.0,0.0,4187.692307692309,4195.384615384617,4184.102564102565,4170.256410256412,4193.846153846155,4194.3589743589755,4176.923076923078,4173.333333333335,4187.692307692309,4186.153846153848,4187.692307692309,4204.102564102565,4177.435897435899,4182.051282051283,832.0,2047.0,2048.0,0.0,0.0,4.0,4.0,4.0,4.0,0.0,4.0,4.0,4.0,4.0,0.0,4.0,4.0,4.0,4.0,4.0,4.0
116.0,0.0,4178.97435897436,4185.128205128207,4171.794871794873,4168.71794871795,4184.102564102565,4186.153846153848,4177.435897435899,4167.179487179489,4181.538461538463,4185.641025641027,4182.564102564104,4194.871794871797,4180.000000000002,4174.871794871797,855.0,2047.0,2048.0,0.0,0.0,4.0,4.0,4.0,4.0,0.0,4.0,4.0,4.0,4.0,0.0,4.0,4.0,4.0,4.0,4.0,4.0
117.0,0.0,4178.97435897436,4193.846153846155,4174.3589743589755,4174.871794871797,4196.410256410258,4188.20512820513,4174.3589743589755,4166.666666666668,4180.512820512822,4185.641025641027,4181.538461538463,4205.641025641027,4190.769230769232,4181.0256410256425,601.0,2047.0,2048.0,0.0,0.0,4.0,4.0,4.0,4.0,0.0,4.0,4.0,4.0,4.0,0.0,4.0,4.0,4.0,4.0,4.0,4.0
118.0,0.0,4181.538461538463,4201.0256410256425,4170.256410256412,4182.564102564104,4185.128205128207,4191.794871794873,4175.897435897437,4172.307692307694,4187.179487179489,4185.128205128207,4191.282051282053,4204.615384615386,4196.923076923078,4188.71794871795,861.0,2047.0,2048.0,0.0,0.0,4.0,4.0,4.0,4.0,0.0,4.0,4.0,4.0,4.0,0.0,4.0,4.0,4.0,4.0,4.0,4.0
119.0,0.0,4185.641025641027,4203.076923076925,4174.3589743589755,4188.20512820513,4189.743589743592,4191.794871794873,4180.000000000002,4180.000000000002,4187.179487179489,4186.666666666668,4186.666666666668,4208.71794871795,4200.512820512822,4189.23076923077,832.0,2047.0,2048.0,0.0,0.0,4.0,4.0,4.0,4.0,0.0,4.0,4.0,4.0,4.0,0.0,4.0,4.0,4.0,4.0,4.0,4.0
120.0,0.0,4187.179487179489,4197.94871794872,4183.589743589745,4183.076923076925,4198.46153846154,4191.794871794873,4174.3589743589755,4180.512820512822,4182.564102564104,4186.153846153848,4180.000000000002,4213.846153846155,4196.410256410258,4187.179487179489,855.0,2047.0,2048.0,0.0,0.0,4.0,4.0,4.0,4.0,0.0,4.0,4.0,4.0,4.0,0.0,4.0,4.0,4.0,4.0,4.0,4.0
121.0,0.0,4188.71794871795,4193.333333333335,4177.94871794872,4180.000000000002,4183.589743589745,4191.794871794873,4168.71794871795,4178.97435897436,4187.179487179489,4184.615384615386,4196.410256410258,4203.589743589745,4193.846153846155,4192.307692307694,601.0,2047.0,2048.0,0.0,0.0,4.0,4.0,4.0,4.0,0.0,4.0,4.0,4.0,4.0,0.0,4.0,4.0,4.0,4.0,4.0,4.0
122.0,0.0,4195.897435897437,4201.0256410256425,4187.179487179489,4187.692307692309,4194.871794871797,4194.871794871797,4175.384615384617,4181.538461538463,4191.794871794873,4184.102564102565,4207.692307692309,4211.282051282053,4200.512820512822,4201.538461538463,861.0,2047.0,2048.0,0.0,0.0,4.0,4.0,4.0,4.0,0.0,4.0,4.0,4.0,4.0,0.0,4.0,4.0,4.0,4.0,4.0,4.0
123.0,0.0,4190.769230769232,4201.0256410256425,4181.0256410256425,4182.564102564104,4187.692307692309,4192.8205128205145,4177.435897435899,4182.564102564104,4189.23076923077,4185.128205128207,4197.435897435899,4210.769230769232,4200.512820512822,4202.051282051283,832.0,2047.0,2048.0,0.0,0.0,4.0,4.0,4.0,4.0,0.0,4.0,4.0,4.0,4.0,0.0,4.0,4.0,4.0,4.0,4.0,4.0
124.0,0.0,4178.97435897436,4188.20512820513,4168.20512820513,4169.23076923077,4189.23076923077,4187.692307692309,4172.8205128205145,4181.538461538463,4188.20512820513,4186.666666666668,4190.769230769232,4205.128205128207,4190.769230769232,4190.256410256412,855.0,2047.0,2048.0,0.0,0.0,4.0,4.0,4.0,4.0,0.0,4.0,4.0,4.0,4.0,0.0,4.0,4.0,4.0,4.0,4.0,4.0
125.0,0.0,4179.487179487181,4188.71794871795,4172.8205128205145,4174.871794871797,4200.000000000002,4187.692307692309,4172.8205128205145,4183.076923076925,4189.23076923077,4187.692307692309,4192.8205128205145,4208.20512820513,4192.307692307694,4183.589743589745,601.0,2047.0,2048.0,0.0,0.0,4.0,4.0,4.0,4.0,0.0,4.0,4.0,4.0,4.0,0.0,4.0,4.0,4.0,4.0,4.0,4.0
126.0,0.0,4190.256410256412,4198.97435897436,4174.871794871797,4185.128205128207,4185.128205128207,4193.333333333335,4178.97435897436,4187.179487179489,4188.20512820513,4184.615384615386,4195.897435897437,4205.128205128207,4203.076923076925,4192.8205128205145,861.0,2047.0,2048.0,0.0,0.0,4.0,4.0,4.0,4.0,0.0,4.0,4.0,4.0,4.0,0.0,4.0,4.0,4.0,4.0,4.0,4.0
127.0,0.0,4201.0256410256425,4199.487179487181,4191.282051282053,4185.128205128207,4193.846153846155,4197.94871794872,4186.153846153848,4191.282051282053,4192.307692307694,4186.153846153848,4203.589743589745,4217.435897435899,4206.666666666668,4208.71794871795,832.0,2047.0,2048.0,0.0,0.0,4.0,4.0,4.0,4.0,0.0,4.0,4.0,4.0,4.0,0.0,4.0,4.0,4.0,4.0,4.0,4.0
128.0,0.0,4198.97435897436,4197.94871794872,4189.23076923077,4190.256410256412,4187.692307692309,4198.97435897436,4187.179487179489,4197.435897435899,4202.051282051283,4190.256410256412,4209.743589743592,4216.410256410258,4209.23076923077,4213.846153846155,855.0,2047.0,2048.0,0.0,0.0,4.0,4.0,4.0,4.0,0.0,4.0,4.0,4.0,4.0,0.0,4.0,4.0,4.0,4.0,4.0,4.0
0.0,0.0,4197.435897435899,4203.589743589745,4182.051282051283,4194.3589743589755,4186.153846153848,4203.589743589745,4190.769230769232,4200.512820512822,4203.076923076925,4188.71794871795,4208.71794871795,4208.20512820513,4210.769230769232,4206.153846153848,709.0,2047.0,2048.0,0.0,0.0,4.0,4.0,4.0,4.0,0.0,4.0,4.0,4.0,4.0,0.0,4.0,4.0,4.0,4.0,4.0,4.0
1.0,0.0,4196.923076923078,4204.102564102565,4191.282051282053,4186.153846153848,4195.384615384617,4205.128205128207,4195.384615384617,4195.897435897437,4195.384615384617,4185.641025641027,4203.076923076925,4211.282051282053,4202.564102564104,4200.000000000002,836.0,2047.0,2048.0,0.0,0.0,4.0,4.0,4.0,4.0,0.0,4.0,4.0,4.0,4.0,0.0,4.0,4.0,4.0,4.0,4.0,4.0
2.0,0.0,4187.179487179489,4194.3589743589755,4182.051282051283,4182.564102564104,4182.051282051283,4196.923076923078,4190.769230769232,4187.179487179489,4196.410256410258,4186.666666666668,4197.435897435899,4205.641025641027,4193.846153846155,4197.435897435899,805.0,2047.0,2048.0,0.0,0.0,4.0,4.0,4.0,4.0,0.0,4.0,4.0,4.0,4.0,0.0,4.0,4.0,4.0,4.0,4.0,4.0
3.0,0.0,4186.666666666668,4192.8205128205145,4186.153846153848,4186.153846153848,4195.384615384617,4189.743589743592,4183.076923076925,4184.102564102565,4198.46153846154,4187.179487179489,4195.897435897437,4209.23076923077,4192.8205128205145,4198.97435897436,811.0,2047.0,2048.0,0.0,0.0,4.0,4.0,4.0,4.0,0.0,4.0,4.0,4.0,4.0,0.0,4.0,4.0,4.0,4.0,4.0,4.0
4.0,0.0,4191.794871794873,4194.871794871797,4189.23076923077,4185.641025641027,4191.282051282053,4188.71794871795,4174.3589743589755,4183.076923076925,4193.333333333335,4184.615384615386,4193.846153846155,4206.666666666668,4193.846153846155,4198.46153846154,0.0,2047.0,2048.0,0.0,0.0,4.0,4.0,4.0,4.0,0.0,4.0,4.0,4.0,4.0,0.0,4.0,4.0,4.0,4.0,4.0,4.0
5.0,0.0,4186.153846153848,4191.282051282053,4178.97435897436,4178.46153846154,4185.128205128207,4186.153846153848,4170.256410256412,4178.97435897436,4186.666666666668,4184.102564102565,4188.71794871795,4198.46153846154,4177.94871794872,4186.153846153848,791.0,2047.0,2048.0,0.0,0.0,4.0,4.0,4.0,4.0,0.0,4.0,4.0,4.0,4.0,0.0,4.0,4.0,4.0,4.0,4.0,4.0
6.0,0.0,4181.538461538463,4190.769230769232,4183.076923076925,4173.846153846155,4197.435897435899,4183.076923076925,4171.794871794873,4178.46153846154,4186.666666666668,4186.153846153848,4193.333333333335,4202.564102564104,4168.71794871795,4178.46153846154,819.0,2047.0,2048.0,0.0,0.0,4.0,4.0,4.0,4.0,0.0,4.0,4.0,4.0,4.0,0.0,4.0,4.0,4.0,4.0,4.0,4.0
7.0,0.0,4190.769230769232,4194.871794871797,4182.564102564104,4179.487179487181,4183.589743589745,4191.794871794873,4177.435897435899,4186.666666666668,4192.8205128205145,4186.666666666668,4204.102564102565,4202.051282051283,4188.71794871795,4192.307692307694,837.0,2047.0,2048.0,0.0,0.0,4.0,4.0,4.0,4.0,0.0,4.0,4.0,4.0,4.0,0.0,4.0,4.0,4.0,4.0,4.0,4.0
8.0,0.0,4200.512820512822,4197.435897435899,4191.282051282053,4190.769230769232,4192.8205128205145,4202.564102564104,4182.051282051283,4190.769230769232,4195.897435897437,4186.153846153848,4203.076923076925,4211.794871794873,4198.97435897436,4200.512820512822,613.0,2047.0,2048.0,0.0,0.0,4.0,4.0,4.0,4.0,0.0,4.0,4.0,4.0,4.0,0.0,4.0,4.0,4.0,4.0,4.0,4.0
9.0,0.0,4192.8205128205145,4200.512820512822,4196.923076923078,4194.3589743589755,4191.794871794873,4198.46153846154,4181.0256410256425,4185.128205128207,4189.743589743592,4184.102564102565,4192.8205128205145,4212.8205128205145,4190.769230769232,4190.256410256412,0.0,2047.0,2048.0,0.0,0.0,4.0,4.0,4.0,4.0,0.0,4.0,4.0,4.0,4.0,0.0,4.0,4.0,4.0,4.0,4.0,4.0
10.0,0.0,4188.71794871795,4198.97435897436,4196.923076923078,4187.692307692309,4183.076923076925,4194.3589743589755,4184.615384615386,4185.128205128207,4187.692307692309,4185.128205128207,4186.666666666668,4208.71794871795,4189.23076923077,4190.256410256412,861.0,2047.0,2048.0,0.0,0.0,4.0,4.0,4.0,4.0,0.0,4.0,4.0,4.0,4.0,0.0,4.0,4.0,4.0,4.0,4.0,4.0
11.0,0.0,4196.923076923078,4189.23076923077,4202.564102564104,4182.051282051283,4194.871794871797,4198.97435897436,4188.20512820513,4193.333333333335,4198.46153846154,4189.743589743592,4192.8205128205145,4214.871794871797,4198.97435897436,4200.000000000002,832.0,2047.0,2048.0,0.0,0.0,4.0,4.0,4.0,4.0,0.0,4.0,4.0,4.0,4.0,0.0,4.0,4.0,4.0,4.0,4.0,4.0
12.0,0.0,4196.410256410258,4190.769230769232,4185.128205128207,4184.615384615386,4179.487179487181,4198.97435897436,4183.589743589745,4196.923076923078,4202.564102564104,4188.20512820513,4207.692307692309,4207.692307692309,4208.71794871795,4200.512820512822,855.0,2047.0,2048.0,0.0,0.0,4.0,4.0,4.0,4.0,0.0,4.0,4.0,4.0,4.0,0.0,4.0,4.0,4.0,4.0,4.0,4.0
13.0,0.0,4198.46153846154,4206.153846153848,4187.179487179489,4190.769230769232,4187.692307692309,4200.512820512822,4182.051282051283,4195.384615384617,4196.923076923078,4185.641025641027,4211.794871794873,4211.794871794873,4211.282051282053,4205.641025641027,600.0,2047.0,2048.0,0.0,0.0,4.0,4.0,4.0,4.0,0.0,4.0,4.0,4.0,4.0,0.0,4.0,4.0,4.0,4.0,4.0,4.0
14.0,0.0,4206.666666666668,4204.615384615386,4203.589743589745,4185.641025641027,4192.307692307694,4208.71794871795,4187.179487179489,4200.000000000002,4202.564102564104,4190.769230769232,4208.71794871795,4221.538461538463,4207.692307692309,4215.897435897437,861.0,2047.0,2048.0,0.0,0.0,4.0,4.0,4.0,4.0,0.0,4.0,4.0,4.0,4.0,0.0,4.0,4.0,4.0,4.0,4.0,4.0
15.0,0.0,4204.615384615386,4192.307692307694,4197.94871794872,4177.94871794872,4185.128205128207,4211.282051282053,4191.282051282053,4203.589743589745,4205.641025641027,4191.282051282053,4211.794871794873,4217.435897435899,4206.666666666668,4209.23076923077,832.0,2047.0,2048.0,0.0,0.0,4.0,4.0,4.0,4.0,0.0,4.0,4.0,4.0,4.0,0.0,4.0,4.0,4.0,4.0,4.0,4.0
16.0,0.0,4197.94871794872,4192.8205128205145,4191.794871794873,4179.487179487181,4197.435897435899,4211.282051282053,4185.641025641027,4195.384615384617,4195.384615384617,4185.641025641027,4209.743589743592,4215.897435897437,4204.102564102565,4195.897435897437,0.0,2047.0,2048.0,0.0,0.0,4.0,4.0,4.0,4.0,0.0,4.0,4.0,4.0,4.0,0.0,4.0,4.0,4.0,4.0,4.0,4.0
17.0,0.0,4199.487179487181,4193.333333333335,4184.102564102565,4183.589743589745,4182.564102564104,4210.769230769232,4181.538461538463,4193.333333333335,4193.846153846155,4184.615384615386,4204.615384615386,4207.179487179489,4195.897435897437,4201.0256410256425,0.0,2047.0,2048.0,0.0,0.0,4.0,4.0,4.0,4.0,0.0,4.0,4.0,4.0,4.0,0.0,4.0,4.0,4.0,4.0,4.0,4.0
18.0,0.0,4201.0256410256425,4195.384615384617,4193.846153846155,4185.128205128207,4191.282051282053,4210.256410256412,4188.20512820513,4197.435897435899,4200.512820512822,4187.692307692309,4202.564102564104,4212.307692307694,4189.743589743592,4203.076923076925,0.0,2047.0,2048.0,0.0,0.0,4.0,4.0,4.0,4.0,0.0,4.0,4.0,4.0,4.0,0.0,4.0,4.0,4.0,4.0,4.0,4.0
19.0,0.0,4190.769230769232,4194.3589743589755,4196.923076923078,4180.512820512822,4194.871794871797,4211.794871794873,4192.8205128205145,4197.435897435899,4201.0256410256425,4185.128205128207,4200.512820512822,4212.8205128205145,4186.666666666668,4188.71794871795,0.0,2047.0,2048.0,0.0,0.0,4.0,4.0,4.0,4.0,0.0,4.0,4.0,4.0,4.0,0.0,4.0,4.0,4.0,4.0,4.0,4.0
20.0,0.0,4189.743589743592,4187.692307692309,4185.641025641027,4178.97435897436,4180.512820512822,4211.282051282053,4188.71794871795,4195.384615384617,4200.512820512822,4184.615384615386,4203.589743589745,4204.102564102565,4190.256410256412,4184.615384615386,0.0,2047.0,2048.0,0.0,0.0,4.0,4.0,4.0,4.0,0.0,4.0,4.0,4.0,4.0,0.0,4.0,4.0,4.0,4.0,4.0,4.0
21.0,0.0,4209.23076923077,4195.384615384617,4203.076923076925,4192.8205128205145,4193.846153846155,4212.307692307694,4189.743589743592,4199.487179487181,4206.153846153848,4188.20512820513,4209.743589743592,4221.538461538463,4204.102564102565,4201.538461538463,0.0,2047.0,2048.0,0.0,0.0,4.0,4.0,4.0,4.0,0.0,4.0,4.0,4.0,4.0,0.0,4.0,4.0,4.0,4.0,4.0,4.0
22.0,0.0,4218.46153846154,4208.71794871795,4212.307692307694,4201.538461538463,4185.128205128207,4213.846153846155,4197.94871794872,4207.692307692309,4209.23076923077,4186.666666666668,4213.333333333335,4223.076923076925,4214.3589743589755,4212.307692307694,0.0,2047.0,2048.0,0.0,0.0,4.0,4.0,4.0,4.0,0.0,4.0,4.0,4.0,4.0,0.0,4.0,4.0,4.0,4.0,4.0,4.0
23.0,0.0,4213.333333333335,4208.71794871795,4213.333333333335,4189.23076923077,4190.256410256412,4211.794871794873,4203.076923076925,4206.666666666668,4203.589743589745,4184.102564102565,4211.794871794873,4217.435897435899,4205.641025641027,4205.128205128207,0.0,2047.0,2048.0,0.0,0.0,4.0,4.0,4.0,4.0,0.0,4.0,4.0,4.0,4.0,0.0,4.0,4.0,4.0,4.0,4.0,4.0
24.0,0.0,4204.102564102565,4197.94871794872,4209.23076923077,4180.000000000002,4195.384615384617,4206.666666666668,4201.538461538463,4200.000000000002,4196.923076923078,4188.20512820513,4209.743589743592,4220.512820512822,4198.46153846154,4199.487179487181,0.0,2047.0,2048.0,0.0,0.0,4.0,4.0,4.0,4.0,0.0,4.0,4.0,4.0,4.0,0.0,4.0,4.0,4.0,4.0,4.0,4.0
25.0,0.0,4193.333333333335,4192.8205128205145,4188.71794871795,4187.179487179489,4183.076923076925,4205.641025641027,4193.333333333335,4195.897435897437,4193.846153846155,4191.282051282053,4203.589743589745,4212.8205128205145,4196.410256410258,4194.3589743589755,0.0,2047.0,2048.0,0.0,0.0,4.0,4.0,4.0,4.0,0.0,4.0,4.0,4.0,4.0,0.0,4.0,4.0,4.0,4.0,4.0,4.0
26.0,0.0,4191.282051282053,4192.307692307694,4194.3589743589755,4187.692307692309,4199.487179487181,4203.076923076925,4188.71794871795,4191.794871794873,4194.3589743589755,4188.20512820513,4196.410256410258,4213.333333333335,4187.179487179489,4184.615384615386,0.0,2047.0,2048.0,0.0,0.0,4.0,4.0,4.0,4.0,0.0,4.0,4.0,4.0,4.0,0.0,4.0,4.0,4.0,4.0,4.0,4.0
27.0,0.0,4192.8205128205145,4191.282051282053,4198.97435897436,4177.435897435899,4188.71794871795,4197.435897435899,4188.20512820513,4194.3589743589755,4199.487179487181,4184.615384615386,4202.564102564104,4213.333333333335,4191.282051282053,4189.23076923077,0.0,2047.0,2048.0,0.0,0.0,4.0,4.0,4.0,4.0,0.0,4.0,4.0,4.0,4.0,0.0,4.0,4.0,4.0,4.0,4.0,4.0
28.0,0.0,4192.8205128205145,4191.794871794873,4195.897435897437,4178.97435897436,4185.128205128207,4202.564102564104,4187.179487179489,4198.46153846154,4202.051282051283,4185.128205128207,4209.23076923077,4217.94871794872,4197.94871794872,4199.487179487181,0.0,2047.0,2048.0,0.0,0.0,4.0,4.0,4.0,4.0,0.0,4.0,4.0,4.0,4.0,0.0,4.0,4.0,4.0,4.0,4.0,4.0
29.0,0.0,4195.384615384617,4192.8205128205145,4201.0256410256425,4187.692307692309,4195.897435897437,4210.769230769232,4191.282051282053,4198.46153846154,4200.512820512822,4186.153846153848,4209.743589743592,4220.000000000002,4196.923076923078,4199.487179487181,0.0,2047.0,2048.0,0.0,0.0,4.0,4.0,4.0,4.0,0.0,4.0,4.0,4.0,4.0,0.0,4.0,4.0,4.0,4.0,4.0,4.0
30.0,0.0,4199.487179487181,4192.307692307694,4199.487179487181,4181.538461538463,4184.615384615386,4202.564102564104,4196.923076923078,4199.487179487181,4202.051282051283,4187.179487179489,4211.794871794873,4213.846153846155,4201.538461538463,4200.512820512822,0.0,2047.0,2048.0,0.0,0.0,4.0,4.0,4.0,4.0,0.0,4.0,4.0,4.0,4.0,0.0,4.0,4.0,4.0,4.0,4.0,4.0
31.0,0.0,4195.897435897437,4187.692307692309,4202.051282051283,4173.846153846155,4192.307692307694,4193.846153846155,4191.282051282053,4195.897435897437,4197.94871794872,4187.692307692309,4205.128205128207,4222.051282051283,4196.410256410258,4199.487179487181,0.0,2047.0,2048.0,0.0,0.0,4.0,4.0,4.0,4.0,0.0,4.0,4.0,4.0,4.0,0.0,4.0,4.0,4.0,4.0,4.0,4.0
32.0,0.0,4185.641025641027,4188.71794871795,4192.307692307694,4182.051282051283,4188.71794871795,4195.897435897437,4184.615384615386,4190.256410256412,4192.307692307694,4186.666666666668,4199.487179487181,4213.846153846155,4187.692307692309,4191.794871794873,0.0,2047.0,2048.0,0.0,0.0,4.0,4.0,4.0,4.0,0.0,4.0,4.0,4.0,4.0,0.0,4.0,4.0,4.0,4.0,4.0,4.0
33.0,0.0,4191.794871794873,4193.846153846155,4195.384615384617,4189.23076923077,4194.871794871797,4197.435897435899,4187.179487179489,4189.23076923077,4196.923076923078,4186.666666666668,4201.0256410256425,4209.23076923077,4190.256410256412,4192.307692307694,0.0,2047.0,2048.0,0.0,0.0,4.0,4.0,4.0,4.0,0.0,4.0,4.0,4.0,4.0,0.0,4.0,4.0,4.0,4.0,4.0,4.0
34.0,0.0,4196.923076923078,4187.692307692309,4206.153846153848,4184.102564102565,4200.512820512822,4193.333333333335,4184.615384615386,4187.692307692309,4199.487179487181,4187.179487179489,4198.46153846154,4216.410256410258,4189.23076923077,4192.8205128205145,0.0,2047.0,2048.0,0.0,0.0,4.0,4.0,4.0,4.0,0.0,4.0,4.0,4.0,4.0,0.0,4.0,4.0,4.0,4.0,4.0,4.0
35.0,0.0,4184.615384615386,4183.589743589745,4187.179487179489,4176.410256410258,4182.051282051283,4192.307692307694,4183.076923076925,4186.153846153848,4196.410256410258,4187.179487179489,4197.94871794872,4207.179487179489,4187.179487179489,4186.153846153848,0.0,2047.0,2048.0,0.0,0.0,4.0,4.0,4.0,4.0,0.0,4.0,4.0,4.0,4.0,0.0,4.0,4.0,4.0,4.0,4.0,4.0
36.0,0.0,4182.564102564104,4187.692307692309,4185.641025641027,4172.8205128205145,4194.871794871797,4193.333333333335,4187.692307692309,4183.589743589745,4192.8205128205145,4186.153846153848,4198.97435897436,4208.71794871795,4188.20512820513,4184.615384615386,0.0,2047.0,2048.0,0.0,0.0,4.0,4.0,4.0,4.0,0.0,4.0,4.0,4.0,4.0,0.0,4.0,4.0,4.0,4.0,4.0,4.0
37.0,0.0,4184.615384615386,4184.615384615386,4188.71794871795,4168.71794871795,4188.71794871795,4188.20512820513,4184.102564102565,4176.923076923078,4187.692307692309,4184.615384615386,4190.256410256412,4203.076923076925,4183.076923076925,4184.615384615386,0.0,2047.0,2048.0,0.0,0.0,4.0,4.0,4.0,4.0,0.0,4.0,4.0,4.0,4.0,0.0,4.0,4.0,4.0,4.0,4.0,4.0
38.0,0.0,4185.641025641027,4183.589743589745,4189.23076923077,4171.794871794873,4183.589743589745,4187.179487179489,4182.051282051283,4177.435897435899,4185.641025641027,4186.153846153848,4187.179487179489,4201.0256410256425,4181.538461538463,4185.128205128207,0.0,2047.0,2048.0,0.0,0.0,4.0,4.0,4.0,4.0,0.0,4.0,4.0,4.0,4.0,0.0,4.0,4.0,4.0,4.0,4.0,4.0
39.0,0.0,4189.23076923077,4185.128205128207,4197.94871794872,4174.3589743589755,4200.000000000002,4190.769230769232,4182.051282051283,4182.564102564104,4185.641025641027,4188.71794871795,4196.923076923078,4214.3589743589755,4185.128205128207,4188.71794871795,0.0,2047.0,2048.0,0.0,0.0,4.0,4.0,4.0,4.0,0.0,4.0,4.0,4.0,4.0,0.0,4.0,4.0,4.0,4.0,4.0,4.0
40.0,0.0,4186.666666666668,4182.051282051283,4192.307692307694,4166.153846153848,4189.23076923077,4190.256410256412,4180.512820512822,4180.000000000002,4185.641025641027,4186.153846153848,4195.897435897437,4208.20512820513,4186.666666666668,4186.153846153848,0.0,2047.0,2048.0,0.0,0.0,4.0,4.0,4.0,4.0,0.0,4.0,4.0,4.0,4.0,0.0,4.0,4.0,4.0,4.0,4.0,4.0
41.0,0.0,4185.641025641027,4187.179487179489,4196.923076923078,4167.179487179489,4194.871794871797,4192.307692307694,4184.615384615386,4178.46153846154,4189.743589743592,4184.102564102565,4193.846153846155,4209.743589743592,4188.20512820513,4183.076923076925,0.0,2047.0,2048.0,0.0,0.0,4.0,4.0,4.0,4.0,0.0,4.0,4.0,4.0,4.0,0.0,4.0,4.0,4.0,4.0,4.0,4.0
42.0,0.0,4187.692307692309,4191.794871794873,4194.871794871797,4180.512820512822,4189.23076923077,4197.94871794872,4188.71794871795,4187.179487179489,4196.923076923078,4187.179487179489,4206.153846153848,4215.384615384617,4195.897435897437,4188.71794871795,0.0,2047.0,2048.0,0.0,0.0,4.0,4.0,4.0,4.0,0.0,4.0,4.0,4.0,4.0,0.0,4.0,4.0,4.0,4.0,4.0,4.0
43.0,0.0,4190.769230769232,4188.71794871795,4187.692307692309,4184.615384615386,4185.128205128207,4203.076923076925,4185.128205128207,4188.71794871795,4195.384615384617,4187.692307692309,4201.538461538463,4213.846153846155,4192.8205128205145,4190.769230769232,0.0,2047.0,2048.0,0.0,0.0,4.0,4.0,4.0,4.0,0.0,4.0,4.0,4.0,4.0,0.0,4.0,4.0,4.0,4.0,4.0,4.0
44.0,0.0,4195.384615384617,4194.3589743589755,4198.46153846154,4174.871794871797,4200.512820512822,4201.0256410256425,4185.641025641027,4184.102564102565,4192.307692307694,4186.666666666668,4192.307692307694,4218.46153846154,4188.20512820513,4188.71794871795,0.0,2047.0,2048.0,0.0,0.0,4.0,4.0,4.0,4.0,0.0,4.0,4.0,4.0,4.0,0.0,4.0,4.0,4.0,4.0,4.0,4.0
45.0,0.0,4190.769230769232,4192.8205128205145,4190.769230769232,4170.256410256412,4185.641025641027,4198.97435897436,4185.641025641027,4187.179487179489,4195.897435897437,4183.589743589745,4201.538461538463,4209.743589743592,4195.384615384617,4188.71794871795,0.0,2047.0,2048.0,0.0,0.0,4.0,4.0,4.0,4.0,0.0,4.0,4.0,4.0,4.0,0.0,4.0,4.0,4.0,4.0,4.0,4.0
46.0,0.0,4181.538461538463,4183.076923076925,4184.615384615386,4171.282051282053,4191.794871794873,4202.051282051283,4178.97435897436,4186.153846153848,4197.94871794872,4185.128205128207,4204.102564102565,4208.20512820513,4193.333333333335,4183.589743589745,0.0,2047.0,2048.0,0.0,0.0,4.0,4.0,4.0,4.0,0.0,4.0,4.0,4.0,4.0,0.0,4.0,4.0,4.0,4.0,4.0,4.0
47.0,0.0,4180.000000000002,4187.179487179489,4188.71794871795,4168.20512820513,4190.769230769232,4200.512820512822,4179.487179487181,4183.589743589745,4199.487179487181,4190.769230769232,4198.97435897436,4213.846153846155,4196.410256410258,4183.076923076925,0.0,2047.0,2048.0,0.0,0.0,4.0,4.0,4.0,4.0,0.0,4.0,4.0,4.0,4.0,0.0,4.0,4.0,4.0,4.0,4.0,4.0
48.0,0.0,4185.641025641027,4195.384615384617,4186.153846153848,4172.307692307694,4182.564102564104,4200.000000000002,4186.666666666668,4192.307692307694,4202.564102564104,4190.769230769232,4201.0256410256425,4215.897435897437,4204.615384615386,4192.307692307694,0.0,2047.0,2048.0,0.0,0.0,4.0,4.0,4.0,4.0,0.0,4.0,4.0,4.0,4.0,0.0,4.0,4.0,4.0,4.0,4.0,4.0
49.0,0.0,4190.769230769232,4194.871794871797,4195.897435897437,4181.0256410256425,4198.97435897436,4206.666666666668,4187.179487179489,4197.435897435899,4204.615384615386,4186.153846153848,4202.051282051283,4217.94871794872,4200.000000000002,4194.3589743589755,0.0,2047.0,2048.0,0.0,0.0,4.0,4.0,4.0,4.0,0.0,4.0,4.0,4.0,4.0,0.0,4.0,4.0,4.0,4.0,4.0,4.0
50.0,0.0,4191.282051282053,4192.8205128205145,4196.923076923078,4176.410256410258,4187.692307692309,4212.8205128205145,4186.153846153848,4190.769230769232,4202.051282051283,4185.128205128207,4201.538461538463,4207.692307692309,4198.46153846154,4189.743589743592,0.0,2047.0,2048.0,0.0,0.0,4.0,4.0,4.0,4.0,0.0,4.0,4.0,4.0,4.0,0.0,4.0,4.0,4.0,4.0,4.0,4.0
51.0,0.0,4190.256410256412,4198.97435897436,4196.923076923078,4177.435897435899,4190.256410256412,4216.410256410258,4189.743589743592,4185.128205128207,4198.97435897436,4187.692307692309,4202.051282051283,4210.256410256412,4200.000000000002,4188.20512820513,0.0,2047.0,2048.0,0.0,0.0,4.0,4.0,4.0,4.0,0.0,4.0,4.0,4.0,4.0,0.0,4.0,4.0,4.0,4.0,4.0,4.0
52.0,0.0,4185.641025641027,4200.512820512822,4190.256410256412,4183.589743589745,4191.794871794873,4215.384615384617,4187.692307692309,4186.153846153848,4198.97435897436,4186.153846153848,4201.538461538463,4211.282051282053,4195.897435897437,4185.641025641027,0.0,2047.0,2048.0,0.0,0.0,4.0,4.0,4.0,4.0,0.0,4.0,4.0,4.0,4.0,0.0,4.0,4.0,4.0,4.0,4.0,4.0
53.0,0.0,4181.0256410256425,4194.871794871797,4178.46153846154,4174.871794871797,4182.564102564104,4209.23076923077,4182.564102564104,4190.769230769232,4198.97435897436,4186.666666666668,4208.20512820513,4207.179487179489,4198.46153846154,4184.102564102565,0.0,2047.0,2048.0,0.0,0.0,4.0,4.0,4.0,4.0,0.0,4.0,4.0,4.0,4.0,0.0,4.0,4.0,4.0,4.0,4.0,4.0
54.0,0.0,4190.769230769232,4192.8205128205145,4194.3589743589755,4174.871794871797,4195.384615384617,4204.615384615386,4184.615384615386,4191.282051282053,4198.97435897436,4188.20512820513,4211.282051282053,4218.46153846154,4208.20512820513,4191.794871794873,0.0,2047.0,2048.0,0.0,0.0,4.0,4.0,4.0,4.0,0.0,4.0,4.0,4.0,4.0,0.0,4.0,4.0,4.0,4.0,4.0,4.0
55.0,0.0,4200.000000000002,4197.435897435899,4198.46153846154,4185.641025641027,4185.641025641027,4200.512820512822,4180.000000000002,4189.23076923077,4201.0256410256425,4185.128205128207,4203.589743589745,4213.846153846155,4206.666666666668,4199.487179487181,0.0,2047.0,2048.0,0.0,0.0,4.0,4.0,4.0,4.0,0.0,4.0,4.0,4.0,4.0,0.0,4.0,4.0,4.0,4.0,4.0,4.0
56.0,0.0,4201.538461538463,4206.666666666668,4198.46153846154,4185.128205128207,4189.743589743592,4202.051282051283,4178.46153846154,4193.846153846155,4202.564102564104,4185.128205128207,4207.179487179489,4213.846153846155,4204.615384615386,4201.0256410256425,0.0,2047.0,2048.0,0.0,0.0,4.0,4.0,4.0,4.0,0.0,4.0,4.0,4.0,4.0,0.0,4.0,4.0,4.0,4.0,4.0,4.0
57.0,0.0,4194.871794871797,4205.641025641027,4198.46153846154,4182.051282051283,4194.871794871797,4209.23076923077,4184.102564102565,4195.384615384617,4198.97435897436,4187.179487179489,4209.743589743592,4216.410256410258,4207.692307692309,4196.410256410258,0.0,2047.0,2048.0,0.0,0.0,4.0,4.0,4.0,4.0,0.0,4.0,4.0,4.0,4.0,0.0,4.0,4.0,4.0,4.0,4.0,4.0
58.0,0.0,4186.666666666668,4198.97435897436,4183.589743589745,4181.538461538463,4186.153846153848,4208.71794871795,4177.94871794872,4186.666666666668,4190.769230769232,4187.692307692309,4191.794871794873,4203.076923076925,4193.846153846155,4185.128205128207,0.0,2047.0,2048.0,0.0,0.0,4.0,4.0,4.0,4.0,0.0,4.0,4.0,4.0,4.0,0.0,4.0,4.0,4.0,4.0,4.0,4.0
59.0,0.0,4184.102564102565,4194.3589743589755,4188.71794871795,4171.282051282053,4197.94871794872,4200.512820512822,4170.769230769232,4175.384615384617,4183.589743589745,4186.666666666668,4178.46153846154,4205.641025641027,4171.282051282053,4178.97435897436,0.0,2047.0,2048.0,0.0,0.0,4.0,4.0,4.0,4.0,0.0,4.0,4.0,4.0,4.0,0.0,4.0,4.0,4.0,4.0,4.0,4.0
60.0,0.0,4186.666666666668,4191.794871794873,4188.20512820513,4166.153846153848,4185.128205128207,4200.512820512822,4173.333333333335,4175.897435897437,4185.128205128207,4184.615384615386,4188.71794871795,4203.589743589745,4172.307692307694,4182.564102564104,0.0,2047.0,2048.0,0.0,0.0,4.0,4.0,4.0,4.0,0.0,4.0,4.0,4.0,4.0,0.0,4.0,4.0,4.0,4.0,4.0,4.0
61.0,0.0,4196.923076923078,4200.000000000002,4192.307692307694,4176.923076923078,4187.179487179489,4207.692307692309,4177.94871794872,4179.487179487181,4191.282051282053,4184.615384615386,4194.3589743589755,4206.666666666668,4187.179487179489,4187.692307692309,0.0,2047.0,2048.0,0.0,0.0,4.0,4.0,4.0,4.0,0.0,4.0,4.0,4.0,4.0,0.0,4.0,4.0,4.0,4.0,4.0,4.0
62.0,0.0,4193.846153846155,4203.589743589745,4198.97435897436,4175.897435897437,4196.923076923078,4204.102564102565,4174.3589743589755,4175.897435897437,4188.20512820513,4186.153846153848,4187.692307692309,4211.794871794873,4187.179487179489,4185.641025641027,0.0,2047.0,2048.0,0.0,0.0,4.0,4.0,4.0,4.0,0.0,4.0,4.0,4.0,4.0,0.0,4.0,4.0,4.0,4.0,4.0,4.0
63.0,0.0,4179.487179487181,4194.871794871797,4181.538461538463,4171.282051282053,4186.153846153848,4195.384615384617,4170.256410256412,4175.384615384617,4184.615384615386,4185.641025641027,4190.256410256412,4202.564102564104,4183.589743589745,4179.487179487181,0.0,2047.0,2048.0,0.0,0.0,4.0,4.0,4.0,4.0,0.0,4.0,4.0,4.0,4.0,0.0,4.0,4.0,4.0,4.0,4.0,4.0
64.0,0.0,4188.71794871795,4198.97435897436,4187.692307692309,4185.128205128207,4199.487179487181,4199.487179487181,4175.384615384617,4184.102564102565,4188.20512820513,4186.153846153848,4199.487179487181,4212.307692307694,4190.769230769232,4186.153846153848,706.0,2047.0,2048.0,0.0,0.0,4.0,4.0,4.0,4.0,0.0,4.0,4.0,4.0,4.0,0.0,4.0,4.0,4.0,4.0,4.0,4.0
65.0,0.0,4204.615384615386,4211.282051282053,4202.564102564104,4189.23076923077,4189.743589743592,4208.71794871795,4184.615384615386,4193.846153846155,4193.846153846155,4187.179487179489,4202.564102564104,4215.897435897437,4198.97435897436,4197.94871794872,836.0,2047.0,2048.0,0.0,0.0,4.0,4.0,4.0,4.0,0.0,4.0,4.0,4.0,4.0,0.0,4.0,4.0,4.0,4.0,4.0,4.0
66.0,0.0,4200.512820512822,4206.153846153848,4202.051282051283,4172.8205128205145,4187.692307692309,4209.743589743592,4188.71794871795,4191.282051282053,4194.3589743589755,4186.666666666668,4195.384615384617,4208.20512820513,4191.282051282053,4191.794871794873,805.0,2047.0,2048.0,0.0,0.0,4.0,4.0,4.0,4.0,0.0,4.0,4.0,4.0,4.0,0.0,4.0,4.0,4.0,4.0,4.0,4.0
67.0,0.0,4191.282051282053,4195.897435897437,4198.97435897436,4173.333333333335,4199.487179487181,4207.692307692309,4188.20512820513,4186.153846153848,4188.20512820513,4187.179487179489,4188.20512820513,4208.20512820513,4180.000000000002,4183.076923076925,811.0,2047.0,2048.0,0.0,0.0,4.0,4.0,4.0,4.0,0.0,4.0,4.0,4.0,4.0,0.0,4.0,4.0,4.0,4.0,4.0,4.0
68.0,0.0,4188.71794871795,4201.0256410256425,4189.23076923077,4190.769230769232,4185.128205128207,4205.128205128207,4184.615384615386,4188.71794871795,4187.692307692309,4185.641025641027,4188.71794871795,4206.666666666668,4186.666666666668,4186.153846153848,0.0,2047.0,2048.0,0.0,0.0,4.0,4.0,4.0,4.0,0.0,4.0,4.0,4.0,4.0,0.0,4.0,4.0,4.0,4.0,4.0,4.0
69.0,0.0,4192.307692307694,4207.692307692309,4196.410256410258,4188.71794871795,4197.435897435899,4201.538461538463,4181.538461538463,4190.769230769232,4190.769230769232,4187.179487179489,4196.923076923078,4212.307692307694,4198.46153846154,4190.769230769232,791.0,2047.0,2048.0,0.0,0.0,4.0,4.0,4.0,4.0,0.0,4.0,4.0,4.0,4.0,0.0,4.0,4.0,4.0,4.0,4.0,4.0
70.0,0.0,4195.897435897437,4202.564102564104,4195.897435897437,4173.846153846155,4194.871794871797,4198.46153846154,4181.538461538463,4189.743589743592,4190.769230769232,4191.282051282053,4204.102564102565,4208.20512820513,4200.000000000002,4189.743589743592,813.0,2047.0,2048.0,0.0,0.0,4.0,4.0,4.0,4.0,0.0,4.0,4.0,4.0,4.0,0.0,4.0,4.0,4.0,4.0,4.0,4.0
71.0,0.0,4198.46153846154,4200.512820512822,4190.769230769232,4177.435897435899,4188.71794871795,4197.435897435899,4181.538461538463,4185.128205128207,4188.20512820513,4189.743589743592,4200.000000000002,4205.128205128207,4191.282051282053,4187.179487179489,837.0,2047.0,2048.0,0.0,0.0,4.0,4.0,4.0,4.0,0.0,4.0,4.0,4.0,4.0,0.0,4.0,4.0,4.0,4.0,4.0,4.0
72.0,0.0,4198.97435897436,4206.153846153848,4195.384615384617,4189.743589743592,4196.923076923078,4198.46153846154,4175.897435897437,4187.179487179489,4188.20512820513,4186.153846153848,4196.410256410258,4213.333333333335,4191.794871794873,4188.20512820513,613.0,2047.0,2048.0,0.0,0.0,4.0,4.0,4.0,4.0,0.0,4.0,4.0,4.0,4.0,0.0,4.0,4.0,4.0,4.0,4.0,4.0
73.0,0.0,4190.769230769232,4205.128205128207,4181.538461538463,4181.538461538463,4185.128205128207,4195.897435897437,4169.23076923077,4187.692307692309,4190.769230769232,4186.666666666668,4195.384615384617,4206.153846153848,4195.897435897437,4186.666666666668,0.0,2047.0,2048.0,0.0,0.0,4.0,4.0,4.0,4.0,0.0,4.0,4.0,4.0,4.0,0.0,4.0,4.0,4.0,4.0,4.0,4.0
74.0,0.0,4185.128205128207,4195.384615384617,4180.512820512822,4169.743589743592,4197.435897435899,4188.71794871795,4166.153846153848,4174.871794871797,4181.0256410256425,4186.666666666668,4183.076923076925,4203.076923076925,4182.564102564104,4174.871794871797,861.0,2047.0,2048.0,0.0,0.0,4.0,4.0,4.0,4.0,0.0,4.0,4.0,4.0,4.0,0.0,4.0,4.0,4.0,4.0,4.0,4.0
75.0,0.0,4183.076923076925,4192.307692307694,4177.94871794872,4173.333333333335,4194.3589743589755,4187.179487179489,4163.589743589745,4167.692307692309,4171.794871794873,4185.641025641027,4175.384615384617,4195.384615384617,4172.8205128205145,4167.179487179489,832.0,2047.0,2048.0,0.0,0.0,4.0,4.0,4.0,4.0,0.0,4.0,4.0,4.0,4.0,0.0,4.0,4.0,4.0,4.0,4.0,4.0
76.0,0.0,4182.564102564104,4203.589743589745,4173.333333333335,4177.435897435899,4185.641025641027,4201.0256410256425,4168.71794871795,4177.435897435899,4177.94871794872,4185.641025641027,4182.564102564104,4194.871794871797,4181.538461538463,4176.410256410258,854.0,2047.0,2048.0,0.0,0.0,4.0,4.0,4.0,4.0,0.0,4.0,4.0,4.0,4.0,0.0,4.0,4.0,4.0,4.0,4.0,4.0
77.0,0.0,4184.615384615386,4208.71794871795,4187.692307692309,4174.871794871797,4199.487179487181,4206.666666666668,4177.94871794872,4183.589743589745,4186.153846153848,4186.666666666668,4186.153846153848,4208.71794871795,4188.71794871795,4184.102564102565,600.0,2047.0,2048.0,0.0,0.0,4.0,4.0,4.0,4.0,0.0,4.0,4.0,4.0,4.0,0.0,4.0,4.0,4.0,4.0,4.0,4.0
78.0,0.0,4186.666666666668,4203.589743589745,4187.692307692309,4181.0256410256425,4189.23076923077,4200.000000000002,4183.589743589745,4182.564102564104,4186.153846153848,4186.153846153848,4187.179487179489,4202.564102564104,4188.71794871795,4182.051282051283,861.0,2047.0,2048.0,0.0,0.0,4.0,4.0,4.0,4.0,0.0,4.0,4.0,4.0,4.0,0.0,4.0,4.0,4.0,4.0,4.0,4.0
79.0,0.0,4189.23076923077,4203.589743589745,4185.128205128207,4187.179487179489,4193.846153846155,4203.589743589745,4182.051282051283,4184.102564102565,4186.153846153848,4186.666666666668,4192.307692307694,4202.564102564104,4187.692307692309,4181.0256410256425,832.0,2047.0,2048.0,0.0,0.0,4.0,4.0,4.0,4.0,0.0,4.0,4.0,4.0,4.0,0.0,4.0,4.0,4.0,4.0,4.0,4.0
80.0,0.0,4186.153846153848,4206.666666666668,4174.871794871797,4183.076923076925,4188.71794871795,4209.743589743592,4171.282051282053,4183.076923076925,4190.769230769232,4185.641025641027,4193.846153846155,4202.051282051283,4189.743589743592,4181.538461538463,854.0,2047.0,2048.0,0.0,0.0,4.0,4.0,4.0,4.0,0.0,4.0,4.0,4.0,4.0,0.0,4.0,4.0,4.0,4.0,4.0,4.0
81.0,0.0,4186.153846153848,4209.743589743592,4170.769230769232,4182.051282051283,4185.641025641027,4207.179487179489,4169.743589743592,4180.000000000002,4187.179487179489,4187.179487179489,4194.3589743589755,4200.512820512822,4193.333333333335,4184.102564102565,600.0,2047.0,2048.0,0.0,0.0,4.0,4.0,4.0,4.0,0.0,4.0,4.0,4.0,4.0,0.0,4.0,4.0,4.0,4.0,4.0,4.0
82.0,0.0,4182.051282051283,4204.615384615386,4185.641025641027,4179.487179487181,4203.076923076925,4202.051282051283,4181.538461538463,4179.487179487181,4183.589743589745,4187.179487179489,4190.256410256412,4207.692307692309,4188.71794871795,4181.0256410256425,861.0,2047.0,2048.0,0.0,0.0,4.0,4.0,4.0,4.0,0.0,4.0,4.0,4.0,4.0,0.0,4.0,4.0,4.0,4.0,4.0,4.0
83.0,0.0,4169.743589743592,4193.333333333335,4170.256410256412,4168.71794871795,4184.102564102565,4198.46153846154,4180.512820512822,4179.487179487181,4185.641025641027,4186.153846153848,4186.153846153848,4199.487179487181,4177.94871794872,4171.282051282053,832.0,2047.0,2048.0,0.0,0.0,4.0,4.0,4.0,4.0,0.0,4.0,4.0,4.0,4.0,0.0,4.0,4.0,4.0,4.0,4.0,4.0
84.0,0.0,4174.3589743589755,4191.794871794873,4161.0256410256425,4169.743589743592,4184.102564102565,4198.97435897436,4171.794871794873,4179.487179487181,4185.128205128207,4186.153846153848,4188.71794871795,4201.538461538463,4174.3589743589755,4168.71794871795,854.0,2047.0,2048.0,0.0,0.0,4.0,4.0,4.0,4.0,0.0,4.0,4.0,4.0,4.0,0.0,4.0,4.0,4.0,4.0,4.0,4.0
85.0,0.0,4180.512820512822,4198.46153846154,4168.20512820513,4176.923076923078,4189.743589743592,4200.000000000002,4172.8205128205145,4183.076923076925,4185.128205128207,4185.641025641027,4190.769230769232,4206.153846153848,4181.538461538463,4172.307692307694,600.0,2047.0,2048.0,0.0,0.0,4.0,4.0,4.0,4.0,0.0,4.0,4.0,4.0,4.0,0.0,4.0,4.0,4.0,4.0,4.0,4.0
86.0,0.0,4175.897435897437,4199.487179487181,4169.23076923077,4174.3589743589755,4185.128205128207,4197.435897435899,4180.000000000002,4186.153846153848,4185.641025641027,4185.128205128207,4192.8205128205145,4199.487179487181,4186.153846153848,4177.435897435899,861.0,2047.0,2048.0,0.0,0.0,4.0,4.0,4.0,4.0,0.0,4.0,4.0,4.0,4.0,0.0,4.0,4.0,4.0,4.0,4.0,4.0
87.0,0.0,4181.0256410256425,4196.410256410258,4182.051282051283,4170.769230769232,4196.410256410258,4194.871794871797,4181.0256410256425,4182.564102564104,4187.692307692309,4186.666666666668,4194.3589743589755,4205.641025641027,4180.512820512822,4182.564102564104,832.0,2047.0,2048.0,0.0,0.0,4.0,4.0,4.0,4.0,0.0,4.0,4.0,4.0,4.0,0.0,4.0,4.0,4.0,4.0,4.0,4.0
88.0,0.0,4184.615384615386,4197.435897435899,4174.3589743589755,4169.743589743592,4180.000000000002,4192.8205128205145,4170.256410256412,4176.923076923078,4185.641025641027,4185.641025641027,4190.769230769232,4202.564102564104,4175.897435897437,4181.0256410256425,854.0,2047.0,2048.0,0.0,0.0,4.0,4.0,4.0,4.0,0.0,4.0,4.0,4.0,4.0,0.0,4.0,4.0,4.0,4.0,4.0,4.0
89.0,0.0,4182.564102564104,4200.000000000002,4163.589743589745,4170.769230769232,4184.615384615386,4193.846153846155,4165.641025641027,4175.384615384617,4181.0256410256425,4185.641025641027,4186.153846153848,4201.538461538463,4175.897435897437,4175.897435897437,600.0,2047.0,2048.0,0.0,0.0,4.0,4.0,4.0,4.0,0.0,4.0,4.0,4.0,4.0,0.0,4.0,4.0,4.0,4.0,4.0,4.0
90.0,0.0,4188.71794871795,4200.000000000002,4171.282051282053,4175.897435897437,4194.871794871797,4199.487179487181,4174.3589743589755,4182.051282051283,4183.589743589745,4186.666666666668,4189.743589743592,4204.615384615386,4182.051282051283,4182.564102564104,861.0,2047.0,2048.0,0.0,0.0,4.0,4.0,4.0,4.0,0.0,4.0,4.0,4.0,4.0,0.0,4.0,4.0,4.0,4.0,4.0,4.0
91.0,0.0,4191.794871794873,4202.051282051283,4172.8205128205145,4175.897435897437,4184.615384615386,4202.051282051283,4182.051282051283,4188.71794871795,4189.743589743592,4186.666666666668,4192.8205128205145,4197.435897435899,4184.615384615386,4185.128205128207,832.0,2047.0,2048.0,0.0,0.0,4.0,4.0,4.0,4.0,0.0,4.0,4.0,4.0,4.0,0.0,4.0,4.0,4.0,4.0,4.0,4.0
92.0,0.0,4185.128205128207,4204.102564102565,4175.897435897437,4170.769230769232,4194.871794871797,4202.051282051283,4181.538461538463,4183.589743589745,4188.71794871795,4187.179487179489,4192.8205128205145,4202.051282051283,4177.94871794872,4174.3589743589755,854.0,2047.0,2048.0,0.0,0.0,4.0,4.0,4.0,4.0,0.0,4.0,4.0,4.0,4.0,0.0,4.0,4.0,4.0,4.0,4.0,4.0
93.0,0.0,4181.0256410256425,4198.46153846154,4170.256410256412,4167.692307692309,4185.641025641027,4200.000000000002,4176.410256410258,4177.435897435899,4184.102564102565,4186.153846153848,4194.3589743589755,4200.000000000002,4176.923076923078,4169.23076923077,600.0,2047.0,2048.0,0.0,0.0,4.0,4.0,4.0,4.0,0.0,4.0,4.0,4.0,4.0,0.0,4.0,4.0,4.0,4.0,4.0,4.0
94.0,0.0,4185.128205128207,4201.0256410256425,4170.256410256412,4172.307692307694,4187.692307692309,4193.333333333335,4171.794871794873,4178.97435897436,4184.102564102565,4184.102564102565,4192.8205128205145,4201.538461538463,4178.97435897436,4177.435897435899,861.0,2047.0,2048.0,0.0,0.0,4.0,4.0,4.0,4.0,0.0,4.0,4.0,4.0,4.0,0.0,4.0,4.0,4.0,4.0,4.0,4.0
95.0,0.0,4186.666666666668,4208.20512820513,4174.871794871797,4180.512820512822,4192.8205128205145,4189.23076923077,4173.333333333335,4185.128205128207,4185.641025641027,4186.666666666668,4200.000000000002,4206.153846153848,4183.589743589745,4184.615384615386,832.0,2047.0,2048.0,0.0,0.0,4.0,4.0,4.0,4.0,0.0,4.0,4.0,4.0,4.0,0.0,4.0,4.0,4.0,4.0,4.0,4.0
96.0,0.0,4188.71794871795,4208.71794871795,4172.8205128205145,4181.0256410256425,4180.512820512822,4188.71794871795,4175.897435897437,4188.71794871795,4187.179487179489,4186.666666666668,4207.692307692309,4202.051282051283,4192.307692307694,4187.692307692309,854.0,2047.0,2048.0,0.0,0.0,4.0,4.0,4.0,4.0,0.0,4.0,4.0,4.0,4.0,0.0,4.0,4.0,4.0,4.0,4.0,4.0
97.0,0.0,4196.410256410258,4209.743589743592,4191.282051282053,4174.871794871797,4195.384615384617,4187.179487179489,4171.794871794873,4184.102564102565,4186.666666666668,4187.179487179489,4198.97435897436,4211.794871794873,4190.256410256412,4193.333333333335,600.0,2047.0,2048.0,0.0,0.0,4.0,4.0,4.0,4.0,0.0,4.0,4.0,4.0,4.0,0.0,4.0,4.0,4.0,4.0,4.0,4.0
98.0,0.0,4197.435897435899,4208.71794871795,4191.794871794873,4181.0256410256425,4185.641025641027,4187.179487179489,4170.769230769232,4183.076923076925,4188.71794871795,4190.769230769232,4201.538461538463,4215.897435897437,4188.71794871795,4202.051282051283,861.0,2047.0,2048.0,0.0,0.0,4.0,4.0,4.0,4.0,0.0,4.0,4.0,4.0,4.0,0.0,4.0,4.0,4.0,4.0,4.0,4.0
99.0,0.0,4194.871794871797,4206.666666666668,4182.564102564104,4190.256410256412,4180.512820512822,4190.769230769232,4175.897435897437,4186.666666666668,4193.333333333335,4190.769230769232,4210.256410256412,4215.897435897437,4194.3589743589755,4199.487179487181,832.0,2047.0,2048.0,0.0,0.0,4.0,4.0,4.0,4.0,0.0,4.0,4.0,4.0,4.0,0.0,4.0,4.0,4.0,4.0,4.0,4.0
100.0,0.0,4193.333333333335,4209.743589743592,4186.153846153848,4185.128205128207,4193.333333333335,4192.8205128205145,4178.97435897436,4180.512820512822,4187.692307692309,4189.23076923077,4201.0256410256425,4212.307692307694,4190.769230769232,4188.71794871795,854.0,2047.0,2048.0,0.0,0.0,4.0,4.0,4.0,4.0,0.0,4.0,4.0,4.0,4.0,0.0,4.0,4.0,4.0,4.0,4.0,4.0
101.0,0.0,4197.94871794872,4218.46153846154,4187.179487179489,4185.641025641027,4182.564102564104,4193.333333333335,4182.564102564104,4177.435897435899,4184.615384615386,4186.666666666668,4198.97435897436,4204.102564102565,4190.256410256412,4192.307692307694,600.0,2047.0,2048.0,0.0,0.0,4.0,4.0,4.0,4.0,0.0,4.0,4.0,4.0,4.0,0.0,4.0,4.0,4.0,4.0,4.0,4.0
102.0,0.0,4208.20512820513,4224.102564102565,4203.589743589745,4192.8205128205145,4191.282051282053,4195.384615384617,4182.051282051283,4184.102564102565,4193.333333333335,4188.71794871795,4206.666666666668,4213.333333333335,4196.410256410258,4202.564102564104,861.0,2047.0,2048.0,0.0,0.0,4.0,4.0,4.0,4.0,0.0,4.0,4.0,4.0,4.0,0.0,4.0,4.0,4.0,4.0,4.0,4.0
103.0,0.0,4209.743589743592,4226.153846153848,4201.538461538463,4191.794871794873,4182.564102564104,4197.435897435899,4179.487179487181,4191.794871794873,4202.051282051283,4193.333333333335,4210.769230769232,4211.282051282053,4202.051282051283,4204.102564102565,832.0,2047.0,2048.0,0.0,0.0,4.0,4.0,4.0,4.0,0.0,4.0,4.0,4.0,4.0,0.0,4.0,4.0,4.0,4.0,4.0,4.0
104.0,0.0,4203.589743589745,4226.666666666668,4189.743589743592,4191.794871794873,4180.000000000002,4197.435897435899,4185.641025641027,4195.384615384617,4200.512820512822,4192.307692307694,4212.307692307694,4208.71794871795,4202.564102564104,4200.512820512822,854.0,2047.0,2048.0,0.0,0.0,4.0,4.0,4.0,4.0,0.0,4.0,4.0,4.0,4.0,0.0,4.0,4.0,4.0,4.0,4.0,4.0
105.0,0.0,4195.897435897437,4215.897435897437,4193.333333333335,4191.794871794873,4191.794871794873,4194.871794871797,4184.615384615386,4190.256410256412,4190.769230769232,4187.692307692309,4203.589743589745,4212.8205128205145,4195.384615384617,4189.23076923077,600.0,2047.0,2048.0,0.0,0.0,4.0,4.0,4.0,4.0,0.0,4.0,4.0,4.0,4.0,0.0,4.0,4.0,4.0,4.0,4.0,4.0
106.0,0.0,4194.3589743589755,4211.794871794873,4185.641025641027,4189.23076923077,4181.538461538463,4192.8205128205145,4177.435897435899,4187.692307692309,4188.71794871795,4184.102564102565,4194.3589743589755,4200.512820512822,4188.71794871795,4181.538461538463,861.0,2047.0,2048.0,0.0,0.0,4.0,4.0,4.0,4.0,0.0,4.0,4.0,4.0,4.0,0.0,4.0,4.0,4.0,4.0,4.0,4.0
107.0,0.0,4203.076923076925,4222.564102564104,4191.282051282053,4190.769230769232,4192.8205128205145,4194.3589743589755,4182.564102564104,4192.307692307694,4191.794871794873,4188.20512820513,4203.589743589745,4206.666666666668,4191.282051282053,4190.769230769232,832.0,2047.0,2048.0,0.0,0.0,4.0,4.0,4.0,4.0,0.0,4.0,4.0,4.0,4.0,0.0,4.0,4.0,4.0,4.0,4.0,4.0
108.0,0.0,4196.410256410258,4217.435897435899,4191.794871794873,4188.20512820513,4185.128205128207,4191.282051282053,4182.051282051283,4191.282051282053,4190.256410256412,4191.794871794873,4208.71794871795,4212.8205128205145,4191.282051282053,4195.384615384617,854.0,2047.0,2048.0,0.0,0.0,4.0,4.0,4.0,4.0,0.0,4.0,4.0,4.0,4.0,0.0,4.0,4.0,4.0,4.0,4.0,4.0
109.0,0.0,4181.538461538463,4202.051282051283,4182.564102564104,4180.000000000002,4180.000000000002,4182.564102564104,4171.794871794873,4178.46153846154,4181.538461538463,4190.769230769232,4192.8205128205145,4205.128205128207,4175.897435897437,4183.589743589745,600.0,2047.0,2048.0,0.0,0.0,4.0,4.0,4.0,4.0,0.0,4.0,4.0,4.0,4.0,0.0,4.0,4.0,4.0,4.0,4.0,4.0
110.0,0.0,4189.23076923077,4213.333333333335,4193.846153846155,4180.000000000002,4194.871794871797,4181.538461538463,4173.333333333335,4175.897435897437,4178.46153846154,4187.179487179489,4190.769230769232,4209.743589743592,4176.923076923078,4183.589743589745,861.0,2047.0,2048.0,0.0,0.0,4.0,4.0,4.0,4.0,0.0,4.0,4.0,4.0,4.0,0.0,4.0,4.0,4.0,4.0,4.0,4.0
111.0,0.0,4200.512820512822,4229.743589743592,4196.410256410258,4185.128205128207,4181.0256410256425,4189.23076923077,4185.641025641027,4192.307692307694,4192.8205128205145,4184.102564102565,4210.256410256412,4212.307692307694,4197.94871794872,4197.94871794872,832.0,2047.0,2048.0,0.0,0.0,4.0,4.0,4.0,4.0,0.0,4.0,4.0,4.0,4.0,0.0,4.0,4.0,4.0,4.0,4.0,4.0
112.0,0.0,4200.512820512822,4222.051282051283,4197.94871794872,4190.256410256412,4190.769230769232,4194.871794871797,4185.641025641027,4196.410256410258,4199.487179487181,4187.179487179489,4212.307692307694,4216.410256410258,4196.410256410258,4201.538461538463,854.0,2047.0,2048.0,0.0,0.0,4.0,4.0,4.0,4.0,0.0,4.0,4.0,4.0,4.0,0.0,4.0,4.0,4.0,4.0,4.0,4.0
113.0,0.0,4199.487179487181,4221.538461538463,4196.410256410258,4203.076923076925,4189.743589743592,4196.410256410258,4180.512820512822,4190.256410256412,4191.794871794873,4191.794871794873,4207.179487179489,4213.846153846155,4194.871794871797,4200.000000000002,600.0,2047.0,2048.0,0.0,0.0,4.0,4.0,4.0,4.0,0.0,4.0,4.0,4.0,4.0,0.0,4.0,4.0,4.0,4.0,4.0,4.0
114.0,0.0,4202.564102564104,4232.307692307694,4193.333333333335,4204.102564102565,4180.000000000002,4195.897435897437,4184.615384615386,4191.794871794873,4191.794871794873,4189.743589743592,4209.23076923077,4207.179487179489,4208.20512820513,4203.589743589745,861.0,2047.0,2048.0,0.0,0.0,4.0,4.0,4.0,4.0,0.0,4.0,4.0,4.0,4.0,0.0,4.0,4.0,4.0,4.0,4.0,4.0
115.0,0.0,4202.051282051283,4225.128205128207,4198.46153846154,4190.769230769232,4193.333333333335,4195.897435897437,4187.179487179489,4190.769230769232,4197.94871794872,4189.23076923077,4204.615384615386,4207.179487179489,4205.128205128207,4201.0256410256425,832.0,2047.0,2048.0,0.0,0.0,4.0,4.0,4.0,4.0,0.0,4.0,4.0,4.0,4.0,0.0,4.0,4.0,4.0,4.0,4.0,4.0
116.0,0.0,4194.871794871797,4216.923076923078,4188.20512820513,4191.794871794873,4182.051282051283,4195.384615384617,4185.641025641027,4187.692307692309,4200.000000000002,4191.794871794873,4200.000000000002,4198.97435897436,4193.846153846155,4196.410256410258,854.0,2047.0,2048.0,0.0,0.0,4.0,4.0,4.0,4.0,0.0,4.0,4.0,4.0,4.0,0.0,4.0,4.0,4.0,4.0,4.0,4.0
117.0,0.0,4195.384615384617,4229.23076923077,4192.8205128205145,4197.94871794872,4186.666666666668,4197.435897435899,4187.179487179489,4188.71794871795,4194.3589743589755,4189.23076923077,4202.564102564104,4207.179487179489,4192.307692307694,4199.487179487181,600.0,2047.0,2048.0,0.0,0.0,4.0,4.0,4.0,4.0,0.0,4.0,4.0,4.0,4.0,0.0,4.0,4.0,4.0,4.0,4.0,4.0
118.0,0.0,4200.000000000002,4228.20512820513,4196.410256410258,4191.794871794873,4186.666666666668,4194.871794871797,4184.102564102565,4190.256410256412,4192.307692307694,4189.23076923077,4205.128205128207,4209.743589743592,4194.3589743589755,4202.564102564104,861.0,2047.0,2048.0,0.0,0.0,4.0,4.0,4.0,4.0,0.0,4.0,4.0,4.0,4.0,0.0,4.0,4.0,4.0,4.0,4.0,4.0
119.0,0.0,4201.0256410256425,4218.97435897436,4186.666666666668,4188.20512820513,4181.538461538463,4189.23076923077,4174.3589743589755,4187.179487179489,4192.307692307694,4192.8205128205145,4202.051282051283,4202.051282051283,4194.871794871797,4199.487179487181,832.0,2047.0,2048.0,0.0,0.0,4.0,4.0,4.0,4.0,0.0,4.0,4.0,4.0,4.0,0.0,4.0,4.0,4.0,4.0,4.0,4.0
120.0,0.0,4200.000000000002,4217.435897435899,4195.897435897437,4187.179487179489,4197.94871794872,4185.641025641027,4172.307692307694,4180.512820512822,4187.179487179489,4188.20512820513,4197.94871794872,4210.256410256412,4192.8205128205145,4197.94871794872,854.0,2047.0,2048.0,0.0,0.0,4.0,4.0,4.0,4.0,0.0,4.0,4.0,4.0,4.0,0.0,4.0,4.0,4.0,4.0,4.0,4.0
121.0,0.0,4195.897435897437,4212.8205128205145,4193.333333333335,4183.589743589745,4184.102564102565,4182.051282051283,4179.487179487181,4181.0256410256425,4185.641025641027,4181.538461538463,4200.000000000002,4210.769230769232,4191.794871794873,4201.0256410256425,600.0,2047.0,2048.0,0.0,0.0,4.0,4.0,4.0,4.0,0.0,4.0,4.0,4.0,4.0,0.0,4.0,4.0,4.0,4.0,4.0,4.0
122.0,0.0,4200.000000000002,4213.333333333335,4190.769230769232,4187.692307692309,4187.179487179489,4185.128205128207,4183.589743589745,4188.20512820513,4191.794871794873,4187.692307692309,4206.666666666668,4216.410256410258,4195.384615384617,4204.102564102565,861.0,2047.0,2048.0,0.0,0.0,4.0,4.0,4.0,4.0,0.0,4.0,4.0,4.0,4.0,0.0,4.0,4.0,4.0,4.0,4.0,4.0
123.0,0.0,4200.512820512822,4222.564102564104,4193.333333333335,4188.20512820513,4193.333333333335,4188.20512820513,4183.076923076925,4187.692307692309,4192.307692307694,4190.769230769232,4205.128205128207,4216.923076923078,4192.8205128205145,4200.512820512822,832.0,2047.0,2048.0,0.0,0.0,4.0,4.0,4.0,4.0,0.0,4.0,4.0,4.0,4.0,0.0,4.0,4.0,4.0,4.0,4.0,4.0
124.0,0.0,4192.8205128205145,4220.512820512822,4187.692307692309,4182.051282051283,4180.512820512822,4185.641025641027,4178.46153846154,4180.512820512822,4188.20512820513,4184.102564102565,4193.846153846155,4202.051282051283,4180.512820512822,4193.333333333335,854.0,2047.0,2048.0,0.0,0.0,4.0,4.0,4.0,4.0,0.0,4.0,4.0,4.0,4.0,0.0,4.0,4.0,4.0,4.0,4.0,4.0
125.0,0.0,4192.8205128205145,4212.8205128205145,4193.333333333335,4185.641025641027,4190.769230769232,4186.666666666668,4176.410256410258,4182.051282051283,4195.384615384617,4188.20512820513,4195.384615384617,4208.20512820513,4180.512820512822,4194.871794871797,600.0,2047.0,2048.0,0.0,0.0,4.0,4.0,4.0,4.0,0.0,4.0,4.0,4.0,4.0,0.0,4.0,4.0,4.0,4.0,4.0,4.0
126.0,0.0,4195.897435897437,4215.897435897437,4185.641025641027,4187.692307692309,4181.538461538463,4191.794871794873,4180.512820512822,4190.769230769232,4200.000000000002,4193.846153846155,4206.666666666668,4208.71794871795,4194.3589743589755,4199.487179487181,861.0,2047.0,2048.0,0.0,0.0,4.0,4.0,4.0,4.0,0.0,4.0,4.0,4.0,4.0,0.0,4.0,4.0,4.0,4.0,4.0,4.0
127.0,0.0,4201.538461538463,4224.102564102565,4188.71794871795,4184.615384615386,4186.153846153848,4193.333333333335,4185.641025641027,4192.8205128205145,4194.3589743589755,4189.743589743592,4205.641025641027,4206.153846153848,4196.410256410258,4200.512820512822,832.0,2047.0,2048.0,0.0,0.0,4.0,4.0,4.0,4.0,0.0,4.0,4.0,4.0,4.0,0.0,4.0,4.0,4.0,4.0,4.0,4.0
128.0,0.0,4209.23076923077,4227.179487179489,4202.051282051283,4190.256410256412,4192.8205128205145,4193.846153846155,4186.666666666668,4194.871794871797,4199.487179487181,4188.20512820513,4203.076923076925,4212.307692307694,4196.923076923078,4205.641025641027,854.0,2047.0,2048.0,0.0,0.0,4.0,4.0,4.0,4.0,0.0,4.0,4.0,4.0,4.0,0.0,4.0,4.0,4.0,4.0,4.0,4.0
0.0,0.0,4204.102564102565,4226.666666666668,4188.71794871795,4200.000000000002,4176.923076923078,4198.46153846154,4183.589743589745,4196.923076923078,4204.615384615386,4190.256410256412,4208.20512820513,4208.71794871795,4198.46153846154,4205.641025641027,705.0,2047.0,2048.0,0.0,0.0,4.0,4.0,4.0,4.0,0.0,4.0,4.0,4.0,4.0,0.0,4.0,4.0,4.0,4.0,4.0,4.0
1.0,0.0,4196.410256410258,4229.743589743592,4187.179487179489,4202.564102564104,4189.743589743592,4205.128205128207,4182.564102564104,4190.769230769232,4199.487179487181,4189.23076923077,4198.97435897436,4204.102564102565,4188.20512820513,4191.794871794873,836.0,2047.0,2048.0,0.0,0.0,4.0,4.0,4.0,4.0,0.0,4.0,4.0,4.0,4.0,0.0,4.0,4.0,4.0,4.0,4.0,4.0
2.0,0.0,4197.94871794872,4230.769230769232,4189.23076923077,4203.589743589745,4184.102564102565,4205.641025641027,4187.692307692309,4184.615384615386,4198.46153846154,4187.179487179489,4189.23076923077,4196.923076923078,4186.666666666668,4183.589743589745,806.0,2047.0,2048.0,0.0,0.0,4.0,4.0,4.0,4.0,0.0,4.0,4.0,4.0,4.0,0.0,4.0,4.0,4.0,4.0,4.0,4.0
3.0,0.0,4202.051282051283,4222.051282051283,4188.71794871795,4203.589743589745,4184.102564102565,4201.538461538463,4193.846153846155,4190.769230769232,4200.000000000002,4190.256410256412,4201.0256410256425,4205.641025641027,4190.769230769232,4189.23076923077,811.0,2047.0,2048.0,0.0,0.0,4.0,4.0,4.0,4.0,0.0,4.0,4.0,4.0,4.0,0.0,4.0,4.0,4.0,4.0,4.0,4.0
4.0,0.0,4197.94871794872,4215.384615384617,4190.769230769232,4200.512820512822,4190.769230769232,4198.46153846154,4192.307692307694,4201.538461538463,4200.000000000002,4194.871794871797,4208.20512820513,4214.871794871797,4183.589743589745,4190.769230769232,0.0,2047.0,2048.0,0.0,0.0,4.0,4.0,4.0,4.0,0.0,4.0,4.0,4.0,4.0,0.0,4.0,4.0,4.0,4.0,4.0,4.0
5.0,0.0,4184.615384615386,4210.256410256412,4179.487179487181,4194.871794871797,4176.923076923078,4192.8205128205145,4186.666666666668,4197.435897435899,4198.46153846154,4190.769230769232,4192.307692307694,4200.000000000002,4176.923076923078,4182.564102564104,790.0,2047.0,2048.0,0.0,0.0,4.0,4.0,4.0,4.0,0.0,4.0,4.0,4.0,4.0,0.0,4.0,4.0,4.0,4.0,4.0,4.0
6.0,0.0,4182.051282051283,4199.487179487181,4185.641025641027,4190.256410256412,4188.71794871795,4190.256410256412,4186.666666666668,4183.589743589745,4192.307692307694,4188.71794871795,4181.538461538463,4202.564102564104,4172.8205128205145,4178.46153846154,811.0,2047.0,2048.0,0.0,0.0,4.0,4.0,4.0,4.0,0.0,4.0,4.0,4.0,4.0,0.0,4.0,4.0,4.0,4.0,4.0,4.0
7.0,0.0,4191.282051282053,4190.769230769232,4188.20512820513,4183.589743589745,4182.051282051283,4192.307692307694,4184.102564102565,4185.128205128207,4191.794871794873,4190.256410256412,4192.307692307694,4207.179487179489,4172.307692307694,4189.23076923077,837.0,2047.0,2048.0,0.0,0.0,4.0,4.0,4.0,4.0,0.0,4.0,4.0,4.0,4.0,0.0,4.0,4.0,4.0,4.0,4.0,4.0
8.0,0.0,4190.769230769232,4202.051282051283,4184.615384615386,4185.128205128207,4179.487179487181,4195.897435897437,4184.615384615386,4194.3589743589755,4195.897435897437,4190.769230769232,4200.000000000002,4205.641025641027,4176.410256410258,4198.46153846154,613.0,2047.0,2048.0,0.0,0.0,4.0,4.0,4.0,4.0,0.0,4.0,4.0,4.0,4.0,0.0,4.0,4.0,4.0,4.0,4.0,4.0
9.0,0.0,4185.641025641027,4218.97435897436,4185.641025641027,4193.846153846155,4191.794871794873,4198.97435897436,4195.897435897437,4200.000000000002,4200.000000000002,4189.743589743592,4199.487179487181,4209.23076923077,4177.435897435899,4191.794871794873,0.0,2047.0,2048.0,0.0,0.0,4.0,4.0,4.0,4.0,0.0,4.0,4.0,4.0,4.0,0.0,4.0,4.0,4.0,4.0,4.0,4.0
10.0,0.0,4183.589743589745,4222.051282051283,4175.384615384617,4187.692307692309,4181.538461538463,4197.435897435899,4199.487179487181,4202.051282051283,4201.538461538463,4189.743589743592,4194.3589743589755,4203.589743589745,4172.307692307694,4185.128205128207,861.0,2047.0,2048.0,0.0,0.0,4.0,4.0,4.0,4.0,0.0,4.0,4.0,4.0,4.0,0.0,4.0,4.0,4.0,4.0,4.0,4.0
11.0,0.0,4184.102564102565,4220.000000000002,4182.564102564104,4176.410256410258,4189.743589743592,4194.871794871797,4190.769230769232,4195.897435897437,4193.333333333335,4189.743589743592,4182.564102564104,4207.179487179489,4168.20512820513,4186.153846153848,832.0,2047.0,2048.0,0.0,0.0,4.0,4.0,4.0,4.0,0.0,4.0,4.0,4.0,4.0,0.0,4.0,4.0,4.0,4.0,4.0,4.0
12.0,0.0,4182.051282051283,4220.512820512822,4185.128205128207,4178.46153846154,4183.076923076925,4192.8205128205145,4184.615384615386,4189.23076923077,4188.20512820513,4188.20512820513,4184.615384615386,4204.102564102565,4169.743589743592,4184.615384615386,854.0,2047.0,2048.0,0.0,0.0,4.0,4.0,4.0,4.0,0.0,4.0,4.0,4.0,4.0,0.0,4.0,4.0,4.0,4.0,4.0,4.0
13.0,0.0,4185.641025641027,4225.128205128207,4182.564102564104,4186.153846153848,4182.051282051283,4193.333333333335,4186.666666666668,4189.23076923077,4196.923076923078,4189.743589743592,4193.333333333335,4202.564102564104,4168.20512820513,4184.102564102565,600.0,2047.0,2048.0,0.0,0.0,4.0,4.0,4.0,4.0,0.0,4.0,4.0,4.0,4.0,0.0,4.0,4.0,4.0,4.0,4.0,4.0
14.0,0.0,4186.666666666668,4221.0256410256425,4192.307692307694,4192.8205128205145,4196.410256410258,4193.846153846155,4186.153846153848,4184.102564102565,4195.384615384617,4191.794871794873,4184.615384615386,4208.71794871795,4163.076923076925,4186.666666666668,861.0,2047.0,2048.0,0.0,0.0,4.0,4.0,4.0,4.0,0.0,4.0,4.0,4.0,4.0,0.0,4.0,4.0,4.0,4.0,4.0,4.0
15.0,0.0,4184.102564102565,4225.128205128207,4181.538461538463,4195.897435897437,4181.0256410256425,4199.487179487181,4184.102564102565,4180.000000000002,4185.128205128207,4188.20512820513,4180.512820512822,4198.46153846154,4168.71794871795,4184.615384615386,832.0,2047.0,2048.0,0.0,0.0,4.0,4.0,4.0,4.0,0.0,4.0,4.0,4.0,4.0,0.0,4.0,4.0,4.0,4.0,4.0,4.0
16.0,0.0,4191.794871794873,4250.769230769232,4180.512820512822,4195.384615384617,4189.743589743592,4204.102564102565,4189.743589743592,4179.487179487181,4186.666666666668,4187.692307692309,4188.20512820513,4201.0256410256425,4173.333333333335,4178.46153846154,0.0,2047.0,2048.0,0.0,0.0,4.0,4.0,4.0,4.0,0.0,4.0,4.0,4.0,4.0,0.0,4.0,4.0,4.0,4.0,4.0,4.0
17.0,0.0,4189.743589743592,4262.564102564104,4183.589743589745,4193.846153846155,4190.256410256412,4197.435897435899,4189.23076923077,4177.94871794872,4189.743589743592,4191.282051282053,4188.20512820513,4204.102564102565,4165.128205128207,4176.410256410258,0.0,2047.0,2048.0,0.0,0.0,4.0,4.0,4.0,4.0,0.0,4.0,4.0,4.0,4.0,0.0,4.0,4.0,4.0,4.0,4.0,4.0
18.0,0.0,4189.743589743592,4260.000000000002,4184.615384615386,4204.102564102565,4180.000000000002,4197.94871794872,4186.153846153848,4184.102564102565,4188.20512820513,4191.282051282053,4189.23076923077,4203.589743589745,4166.153846153848,4185.128205128207,0.0,2047.0,2048.0,0.0,0.0,4.0,4.0,4.0,4.0,0.0,4.0,4.0,4.0,4.0,0.0,4.0,4.0,4.0,4.0,4.0,4.0
19.0,0.0,4205.128205128207,4272.8205128205145,4199.487179487181,4215.384615384617,4191.794871794873,4205.641025641027,4193.333333333335,4193.846153846155,4196.923076923078,4191.282051282053,4200.512820512822,4216.923076923078,4177.94871794872,4199.487179487181,0.0,2047.0,2048.0,0.0,0.0,4.0,4.0,4.0,4.0,0.0,4.0,4.0,4.0,4.0,0.0,4.0,4.0,4.0,4.0,4.0,4.0
20.0,0.0,4203.076923076925,4281.0256410256425,4193.846153846155,4209.23076923077,4184.615384615386,4198.97435897436,4197.435897435899,4197.435897435899,4204.615384615386,4192.307692307694,4207.179487179489,4217.435897435899,4187.692307692309,4204.615384615386,0.0,2047.0,2048.0,0.0,0.0,4.0,4.0,4.0,4.0,0.0,4.0,4.0,4.0,4.0,0.0,4.0,4.0,4.0,4.0,4.0,4.0
21.0,0.0,4196.923076923078,4269.23076923077,4191.794871794873,4205.641025641027,4191.282051282053,4192.307692307694,4196.923076923078,4197.435897435899,4199.487179487181,4191.794871794873,4207.179487179489,4218.46153846154,4191.282051282053,4203.076923076925,0.0,2047.0,2048.0,0.0,0.0,4.0,4.0,4.0,4.0,0.0,4.0,4.0,4.0,4.0,0.0,4.0,4.0,4.0,4.0,4.0,4.0
22.0,0.0,4201.538461538463,4264.102564102565,4191.282051282053,4216.410256410258,4187.179487179489,4198.46153846154,4196.410256410258,4196.923076923078,4198.46153846154,4188.71794871795,4209.743589743592,4215.384615384617,4189.743589743592,4202.564102564104,0.0,2047.0,2048.0,0.0,0.0,4.0,4.0,4.0,4.0,0.0,4.0,4.0,4.0,4.0,0.0,4.0,4.0,4.0,4.0,4.0,4.0
23.0,0.0,4203.076923076925,4272.8205128205145,4183.076923076925,4215.384615384617,4176.923076923078,4203.589743589745,4190.769230769232,4197.435897435899,4202.051282051283,4190.769230769232,4209.743589743592,4209.23076923077,4187.692307692309,4202.051282051283,0.0,2047.0,2048.0,0.0,0.0,4.0,4.0,4.0,4.0,0.0,4.0,4.0,4.0,4.0,0.0,4.0,4.0,4.0,4.0,4.0,4.0
24.0,0.0,4196.410256410258,4274.871794871797,4191.282051282053,4204.615384615386,4194.871794871797,4202.051282051283,4189.23076923077,4196.410256410258,4193.846153846155,4193.333333333335,4204.615384615386,4216.923076923078,4184.102564102565,4197.94871794872,0.0,2047.0,2048.0,0.0,0.0,4.0,4.0,4.0,4.0,0.0,4.0,4.0,4.0,4.0,0.0,4.0,4.0,4.0,4.0,4.0,4.0
25.0,0.0,4188.20512820513,4273.846153846155,4185.128205128207,4209.743589743592,4184.102564102565,4200.512820512822,4192.307692307694,4193.846153846155,4190.256410256412,4187.692307692309,4203.589743589745,4209.743589743592,4176.410256410258,4195.384615384617,0.0,2047.0,2048.0,0.0,0.0,4.0,4.0,4.0,4.0,0.0,4.0,4.0,4.0,4.0,0.0,4.0,4.0,4.0,4.0,4.0,4.0
26.0,0.0,4194.871794871797,4278.46153846154,4185.128205128207,4218.97435897436,4185.641025641027,4203.589743589745,4190.256410256412,4190.256410256412,4194.871794871797,4188.71794871795,4202.564102564104,4206.153846153848,4172.8205128205145,4196.923076923078,0.0,2047.0,2048.0,0.0,0.0,4.0,4.0,4.0,4.0,0.0,4.0,4.0,4.0,4.0,0.0,4.0,4.0,4.0,4.0,4.0,4.0
27.0,0.0,4204.102564102565,4276.410256410258,4191.794871794873,4215.384615384617,4187.692307692309,4207.179487179489,4188.20512820513,4190.256410256412,4192.307692307694,4194.871794871797,4203.589743589745,4208.20512820513,4182.051282051283,4199.487179487181,0.0,2047.0,2048.0,0.0,0.0,4.0,4.0,4.0,4.0,0.0,4.0,4.0,4.0,4.0,0.0,4.0,4.0,4.0,4.0,4.0,4.0
28.0,0.0,4199.487179487181,4269.743589743592,4182.564102564104,4212.307692307694,4178.46153846154,4204.102564102565,4192.307692307694,4193.333333333335,4191.282051282053,4191.282051282053,4208.20512820513,4201.0256410256425,4184.615384615386,4198.97435897436,0.0,2047.0,2048.0,0.0,0.0,4.0,4.0,4.0,4.0,0.0,4.0,4.0,4.0,4.0,0.0,4.0,4.0,4.0,4.0,4.0,4.0
29.0,0.0,4195.384615384617,4271.794871794873,4187.692307692309,4207.692307692309,4193.333333333335,4199.487179487181,4188.20512820513,4192.8205128205145,4197.435897435899,4188.71794871795,4206.666666666668,4206.153846153848,4177.435897435899,4195.384615384617,0.0,2047.0,2048.0,0.0,0.0,4.0,4.0,4.0,4.0,0.0,4.0,4.0,4.0,4.0,0.0,4.0,4.0,4.0,4.0,4.0,4.0
30.0,0.0,4194.3589743589755,4269.743589743592,4185.641025641027,4200.512820512822,4182.051282051283,4193.333333333335,4182.564102564104,4189.743589743592,4194.871794871797,4189.743589743592,4196.410256410258,4204.102564102565,4179.487179487181,4192.307692307694,0.0,2047.0,2048.0,0.0,0.0,4.0,4.0,4.0,4.0,0.0,4.0,4.0,4.0,4.0,0.0,4.0,4.0,4.0,4.0,4.0,4.0
31.0,0.0,4191.282051282053,4261.0256410256425,4180.512820512822,4198.46153846154,4185.641025641027,4187.692307692309,4184.102564102565,4182.051282051283,4185.128205128207,4189.23076923077,4185.641025641027,4201.538461538463,4173.846153846155,4187.179487179489,0.0,2047.0,2048.0,0.0,0.0,4.0,4.0,4.0,4.0,0.0,4.0,4.0,4.0,4.0,0.0,4.0,4.0,4.0,4.0,4.0,4.0
32.0,0.0,4184.615384615386,4253.846153846155,4178.46153846154,4197.435897435899,4191.794871794873,4187.692307692309,4181.0256410256425,4176.923076923078,4187.692307692309,4188.20512820513,4187.692307692309,4200.512820512822,4163.076923076925,4183.076923076925,0.0,2047.0,2048.0,0.0,0.0,4.0,4.0,4.0,4.0,0.0,4.0,4.0,4.0,4.0,0.0,4.0,4.0,4.0,4.0,4.0,4.0
33.0,0.0,4182.564102564104,4252.307692307694,4170.769230769232,4197.94871794872,4180.000000000002,4187.692307692309,4182.051282051283,4181.538461538463,4191.282051282053,4189.743589743592,4194.3589743589755,4196.923076923078,4165.128205128207,4185.128205128207,0.0,2047.0,2048.0,0.0,0.0,4.0,4.0,4.0,4.0,0.0,4.0,4.0,4.0,4.0,0.0,4.0,4.0,4.0,4.0,4.0,4.0
34.0,0.0,4183.076923076925,4253.333333333335,4177.435897435899,4201.0256410256425,4193.333333333335,4187.692307692309,4187.692307692309,4188.20512820513,4185.128205128207,4189.23076923077,4189.23076923077,4207.179487179489,4166.153846153848,4185.641025641027,0.0,2047.0,2048.0,0.0,0.0,4.0,4.0,4.0,4.0,0.0,4.0,4.0,4.0,4.0,0.0,4.0,4.0,4.0,4.0,4.0,4.0
35.0,0.0,4181.0256410256425,4253.333333333335,4172.8205128205145,4195.384615384617,4183.076923076925,4188.71794871795,4186.153846153848,4190.256410256412,4185.641025641027,4190.256410256412,4186.153846153848,4201.538461538463,4163.076923076925,4183.589743589745,0.0,2047.0,2048.0,0.0,0.0,4.0,4.0,4.0,4.0,0.0,4.0,4.0,4.0,4.0,0.0,4.0,4.0,4.0,4.0,4.0,4.0
36.0,0.0,4182.051282051283,4250.256410256412,4171.282051282053,4188.71794871795,4183.076923076925,4189.23076923077,4182.564102564104,4188.20512820513,4192.307692307694,4191.282051282053,4193.333333333335,4199.487179487181,4163.589743589745,4185.128205128207,0.0,2047.0,2048.0,0.0,0.0,4.0,4.0,4.0,4.0,0.0,4.0,4.0,4.0,4.0,0.0,4.0,4.0,4.0,4.0,4.0,4.0
37.0,0.0,4182.564102564104,4245.128205128207,4176.410256410258,4194.871794871797,4190.256410256412,4188.71794871795,4182.564102564104,4189.23076923077,4193.846153846155,4188.71794871795,4198.97435897436,4206.153846153848,4168.20512820513,4187.692307692309,0.0,2047.0,2048.0,0.0,0.0,4.0,4.0,4.0,4.0,0.0,4.0,4.0,4.0,4.0,0.0,4.0,4.0,4.0,4.0,4.0,4.0
38.0,0.0,4184.615384615386,4251.282051282053,4170.256410256412,4196.410256410258,4177.435897435899,4188.20512820513,4185.641025641027,4189.743589743592,4188.71794871795,4188.20512820513,4198.97435897436,4200.512820512822,4174.871794871797,4191.282051282053,0.0,2047.0,2048.0,0.0,0.0,4.0,4.0,4.0,4.0,0.0,4.0,4.0,4.0,4.0,0.0,4.0,4.0,4.0,4.0,4.0,4.0
39.0,0.0,4200.000000000002,4266.153846153848,4190.256410256412,4195.384615384617,4193.333333333335,4193.846153846155,4188.20512820513,4183.589743589745,4185.128205128207,4191.282051282053,4198.97435897436,4209.743589743592,4179.487179487181,4199.487179487181,0.0,2047.0,2048.0,0.0,0.0,4.0,4.0,4.0,4.0,0.0,4.0,4.0,4.0,4.0,0.0,4.0,4.0,4.0,4.0,4.0,4.0
40.0,0.0,4209.23076923077,4273.846153846155,4196.923076923078,4210.769230769232,4186.666666666668,4197.435897435899,4186.666666666668,4176.923076923078,4185.641025641027,4191.282051282053,4200.000000000002,4209.743589743592,4178.46153846154,4204.102564102565,0.0,2047.0,2048.0,0.0,0.0,4.0,4.0,4.0,4.0,0.0,4.0,4.0,4.0,4.0,0.0,4.0,4.0,4.0,4.0,4.0,4.0
41.0,0.0,4211.282051282053,4273.333333333335,4189.743589743592,4220.512820512822,4182.564102564104,4192.8205128205145,4181.538461538463,4174.3589743589755,4184.102564102565,4191.282051282053,4197.435897435899,4205.128205128207,4173.333333333335,4199.487179487181,0.0,2047.0,2048.0,0.0,0.0,4.0,4.0,4.0,4.0,0.0,4.0,4.0,4.0,4.0,0.0,4.0,4.0,4.0,4.0,4.0,4.0
42.0,0.0,4217.435897435899,4268.71794871795,4196.410256410258,4208.71794871795,4194.871794871797,4192.307692307694,4181.0256410256425,4176.410256410258,4182.564102564104,4189.743589743592,4196.410256410258,4207.179487179489,4176.923076923078,4202.051282051283,0.0,2047.0,2048.0,0.0,0.0,4.0,4.0,4.0,4.0,0.0,4.0,4.0,4.0,4.0,0.0,4.0,4.0,4.0,4.0,4.0,4.0
43.0,0.0,4223.589743589745,4267.692307692309,4189.23076923077,4201.0256410256425,4184.102564102565,4198.97435897436,4185.641025641027,4183.589743589745,4187.179487179489,4187.179487179489,4198.46153846154,4199.487179487181,4187.179487179489,4212.307692307694,0.0,2047.0,2048.0,0.0,0.0,4.0,4.0,4.0,4.0,0.0,4.0,4.0,4.0,4.0,0.0,4.0,4.0,4.0,4.0,4.0,4.0
44.0,0.0,4229.743589743592,4267.692307692309,4190.769230769232,4204.102564102565,4194.3589743589755,4195.897435897437,4189.743589743592,4181.538461538463,4188.71794871795,4188.71794871795,4193.333333333335,4202.051282051283,4180.000000000002,4207.179487179489,0.0,2047.0,2048.0,0.0,0.0,4.0,4.0,4.0,4.0,0.0,4.0,4.0,4.0,4.0,0.0,4.0,4.0,4.0,4.0,4.0,4.0
45.0,0.0,4231.282051282053,4264.102564102565,4195.384615384617,4200.000000000002,4189.743589743592,4183.076923076925,4183.076923076925,4173.846153846155,4183.589743589745,4185.641025641027,4189.23076923077,4201.0256410256425,4170.769230769232,4198.97435897436,0.0,2047.0,2048.0,0.0,0.0,4.0,4.0,4.0,4.0,0.0,4.0,4.0,4.0,4.0,0.0,4.0,4.0,4.0,4.0,4.0,4.0
46.0,0.0,4239.487179487181,4268.20512820513,4200.000000000002,4201.538461538463,4187.692307692309,4184.102564102565,4173.846153846155,4177.94871794872,4185.128205128207,4185.641025641027,4196.923076923078,4201.538461538463,4183.076923076925,4210.256410256412,0.0,2047.0,2048.0,0.0,0.0,4.0,4.0,4.0,4.0,0.0,4.0,4.0,4.0,4.0,0.0,4.0,4.0,4.0,4.0,4.0,4.0
47.0,0.0,4249.23076923077,4277.94871794872,4209.23076923077,4215.384615384617,4198.46153846154,4191.794871794873,4179.487179487181,4183.076923076925,4191.282051282053,4192.8205128205145,4201.538461538463,4210.256410256412,4192.8205128205145,4219.487179487181,0.0,2047.0,2048.0,0.0,0.0,4.0,4.0,4.0,4.0,0.0,4.0,4.0,4.0,4.0,0.0,4.0,4.0,4.0,4.0,4.0,4.0
48.0,0.0,4240.512820512822,4267.179487179489,4200.000000000002,4220.512820512822,4184.615384615386,4186.666666666668,4180.512820512822,4176.410256410258,4186.666666666668,4190.769230769232,4192.8205128205145,4198.46153846154,4176.923076923078,4207.692307692309,0.0,2047.0,2048.0,0.0,0.0,4.0,4.0,4.0,4.0,0.0,4.0,4.0,4.0,4.0,0.0,4.0,4.0,4.0,4.0,4.0,4.0
49.0,0.0,4232.307692307694,4254.871794871797,4204.615384615386,4211.794871794873,4195.384615384617,4183.589743589745,4175.384615384617,4170.256410256412,4181.0256410256425,4186.666666666668,4185.128205128207,4197.94871794872,4161.538461538463,4200.000000000002,0.0,2047.0,2048.0,0.0,0.0,4.0,4.0,4.0,4.0,0.0,4.0,4.0,4.0,4.0,0.0,4.0,4.0,4.0,4.0,4.0,4.0
50.0,0.0,4241.0256410256425,4271.794871794873,4205.641025641027,4205.641025641027,4192.8205128205145,4189.23076923077,4178.46153846154,4175.384615384617,4185.128205128207,4191.282051282053,4195.897435897437,4205.128205128207,4174.871794871797,4212.8205128205145,0.0,2047.0,2048.0,0.0,0.0,4.0,4.0,4.0,4.0,0.0,4.0,4.0,4.0,4.0,0.0,4.0,4.0,4.0,4.0,4.0,4.0
51.0,0.0,4243.589743589745,4288.20512820513,4193.333333333335,4207.692307692309,4185.641025641027,4191.282051282053,4178.97435897436,4176.923076923078,4187.692307692309,4193.333333333335,4201.538461538463,4201.538461538463,4181.538461538463,4213.846153846155,0.0,2047.0,2048.0,0.0,0.0,4.0,4.0,4.0,4.0,0.0,4.0,4.0,4.0,4.0,0.0,4.0,4.0,4.0,4.0,4.0,4.0
52.0,0.0,4232.307692307694,4277.435897435899,4199.487179487181,4206.666666666668,4200.000000000002,4191.282051282053,4177.94871794872,4172.8205128205145,4184.615384615386,4188.20512820513,4189.743589743592,4201.538461538463,4162.564102564104,4201.0256410256425,0.0,2047.0,2048.0,0.0,0.0,4.0,4.0,4.0,4.0,0.0,4.0,4.0,4.0,4.0,0.0,4.0,4.0,4.0,4.0,4.0,4.0
53.0,0.0,4221.538461538463,4272.307692307694,4198.46153846154,4199.487179487181,4187.179487179489,4193.846153846155,4182.564102564104,4174.871794871797,4184.102564102565,4186.666666666668,4183.076923076925,4196.410256410258,4154.871794871797,4195.384615384617,0.0,2047.0,2048.0,0.0,0.0,4.0,4.0,4.0,4.0,0.0,4.0,4.0,4.0,4.0,0.0,4.0,4.0,4.0,4.0,4.0,4.0
54.0,0.0,4216.923076923078,4269.743589743592,4194.871794871797,4201.0256410256425,4192.8205128205145,4195.897435897437,4181.0256410256425,4171.282051282053,4183.589743589745,4189.743589743592,4184.615384615386,4198.46153846154,4158.46153846154,4190.769230769232,0.0,2047.0,2048.0,0.0,0.0,4.0,4.0,4.0,4.0,0.0,4.0,4.0,4.0,4.0,0.0,4.0,4.0,4.0,4.0,4.0,4.0
55.0,0.0,4217.435897435899,4258.46153846154,4197.435897435899,4208.71794871795,4196.410256410258,4201.0256410256425,4177.435897435899,4170.256410256412,4186.153846153848,4185.641025641027,4186.666666666668,4197.435897435899,4160.000000000002,4190.256410256412,0.0,2047.0,2048.0,0.0,0.0,4.0,4.0,4.0,4.0,0.0,4.0,4.0,4.0,4.0,0.0,4.0,4.0,4.0,4.0,4.0,4.0
56.0,0.0,4223.076923076925,4270.769230769232,4207.692307692309,4210.256410256412,4190.769230769232,4209.23076923077,4189.743589743592,4183.076923076925,4192.8205128205145,4183.589743589745,4189.23076923077,4197.435897435899,4163.076923076925,4197.435897435899,0.0,2047.0,2048.0,0.0,0.0,4.0,4.0,4.0,4.0,0.0,4.0,4.0,4.0,4.0,0.0,4.0,4.0,4.0,4.0,4.0,4.0
57.0,0.0,4216.923076923078,4289.743589743592,4205.128205128207,4202.564102564104,4200.000000000002,4209.743589743592,4193.846153846155,4188.71794871795,4192.307692307694,4190.769230769232,4184.102564102565,4206.153846153848,4158.46153846154,4193.846153846155,0.0,2047.0,2048.0,0.0,0.0,4.0,4.0,4.0,4.0,0.0,4.0,4.0,4.0,4.0,0.0,4.0,4.0,4.0,4.0,4.0,4.0
58.0,0.0,4198.97435897436,4276.410256410258,4173.846153846155,4193.846153846155,4186.153846153848,4207.179487179489,4183.076923076925,4182.051282051283,4185.641025641027,4194.3589743589755,4174.3589743589755,4192.307692307694,4146.666666666668,4176.923076923078,0.0,2047.0,2048.0,0.0,0.0,4.0,4.0,4.0,4.0,0.0,4.0,4.0,4.0,4.0,0.0,4.0,4.0,4.0,4.0,4.0,4.0
59.0,0.0,4192.307692307694,4264.102564102565,4180.512820512822,4190.256410256412,4196.410256410258,4207.692307692309,4188.71794871795,4177.94871794872,4182.564102564104,4189.23076923077,4171.794871794873,4191.282051282053,4142.564102564104,4171.794871794873,0.0,2047.0,2048.0,0.0,0.0,4.0,4.0,4.0,4.0,0.0,4.0,4.0,4.0,4.0,0.0,4.0,4.0,4.0,4.0,4.0,4.0
60.0,0.0,4186.153846153848,4264.102564102565,4189.23076923077,4185.128205128207,4196.410256410258,4201.0256410256425,4194.3589743589755,4176.923076923078,4182.051282051283,4183.589743589745,4174.871794871797,4199.487179487181,4143.076923076925,4171.794871794873,0.0,2047.0,2048.0,0.0,0.0,4.0,4.0,4.0,4.0,0.0,4.0,4.0,4.0,4.0,0.0,4.0,4.0,4.0,4.0,4.0,4.0
61.0,0.0,4175.384615384617,4256.410256410258,4162.051282051283,4182.564102564104,4178.46153846154,4199.487179487181,4186.153846153848,4176.923076923078,4189.23076923077,4187.692307692309,4177.435897435899,4192.307692307694,4144.615384615386,4166.666666666668,0.0,2047.0,2048.0,0.0,0.0,4.0,4.0,4.0,4.0,0.0,4.0,4.0,4.0,4.0,0.0,4.0,4.0,4.0,4.0,4.0,4.0
62.0,0.0,4176.410256410258,4254.3589743589755,4166.666666666668,4187.179487179489,4194.871794871797,4205.641025641027,4190.256410256412,4182.564102564104,4194.3589743589755,4189.23076923077,4180.000000000002,4195.897435897437,4146.153846153848,4165.641025641027,0.0,2047.0,2048.0,0.0,0.0,4.0,4.0,4.0,4.0,0.0,4.0,4.0,4.0,4.0,0.0,4.0,4.0,4.0,4.0,4.0,4.0
63.0,0.0,4174.3589743589755,4261.0256410256425,4173.846153846155,4187.692307692309,4188.71794871795,4202.051282051283,4197.435897435899,4189.743589743592,4191.794871794873,4183.589743589745,4181.0256410256425,4192.307692307694,4142.564102564104,4167.692307692309,0.0,2047.0,2048.0,0.0,0.0,4.0,4.0,4.0,4.0,0.0,4.0,4.0,4.0,4.0,0.0,4.0,4.0,4.0,4.0,4.0,4.0
64.0,0.0,4174.3589743589755,4266.153846153848,4172.8205128205145,4184.102564102565,4191.794871794873,4196.923076923078,4190.769230769232,4192.307692307694,4193.333333333335,4185.128205128207,4180.000000000002,4198.97435897436,4140.000000000002,4168.20512820513,708.0,2047.0,2048.0,0.0,0.0,4.0,4.0,4.0,4.0,0.0,4.0,4.0,4.0,4.0,0.0,4.0,4.0,4.0,4.0,4.0,4.0
65.0,0.0,4185.128205128207,4270.769230769232,4185.128205128207,4191.282051282053,4195.897435897437,4205.128205128207,4184.615384615386,4194.3589743589755,4200.000000000002,4191.282051282053,4187.692307692309,4211.794871794873,4147.692307692309,4174.871794871797,836.0,2047.0,2048.0,0.0,0.0,4.0,4.0,4.0,4.0,0.0,4.0,4.0,4.0,4.0,0.0,4.0,4.0,4.0,4.0,4.0,4.0
66.0,0.0,4191.794871794873,4274.3589743589755,4185.128205128207,4203.076923076925,4179.487179487181,4213.846153846155,4189.743589743592,4192.8205128205145,4198.97435897436,4192.8205128205145,4197.94871794872,4205.641025641027,4155.897435897437,4185.128205128207,807.0,2047.0,2048.0,0.0,0.0,4.0,4.0,4.0,4.0,0.0,4.0,4.0,4.0,4.0,0.0,4.0,4.0,4.0,4.0,4.0,4.0
67.0,0.0,4182.051282051283,4271.794871794873,4177.94871794872,4194.871794871797,4192.307692307694,4209.23076923077,4186.666666666668,4180.000000000002,4191.282051282053,4187.692307692309,4187.692307692309,4197.435897435899,4146.666666666668,4175.384615384617,811.0,2047.0,2048.0,0.0,0.0,4.0,4.0,4.0,4.0,0.0,4.0,4.0,4.0,4.0,0.0,4.0,4.0,4.0,4.0,4.0,4.0
68.0,0.0,4164.615384615386,4265.128205128207,4164.102564102565,4177.435897435899,4187.692307692309,4201.0256410256425,4177.94871794872,4169.743589743592,4186.153846153848,4183.589743589745,4170.256410256412,4181.0256410256425,4132.8205128205145,4153.846153846155,0.0,2047.0,2048.0,0.0,0.0,4.0,4.0,4.0,4.0,0.0,4.0,4.0,4.0,4.0,0.0,4.0,4.0,4.0,4.0,4.0,4.0
69.0,0.0,4165.641025641027,4267.692307692309,4173.333333333335,4176.410256410258,4187.692307692309,4205.128205128207,4185.641025641027,4169.743589743592,4182.051282051283,4185.641025641027,4166.666666666668,4185.128205128207,4129.743589743592,4154.871794871797,790.0,2047.0,2048.0,0.0,0.0,4.0,4.0,4.0,4.0,0.0,4.0,4.0,4.0,4.0,0.0,4.0,4.0,4.0,4.0,4.0,4.0
70.0,0.0,4175.897435897437,4270.769230769232,4187.692307692309,4184.102564102565,4193.333333333335,4211.794871794873,4194.871794871797,4174.3589743589755,4181.538461538463,4188.71794871795,4172.8205128205145,4196.410256410258,4139.487179487181,4169.743589743592,810.0,2047.0,2048.0,0.0,0.0,4.0,4.0,4.0,4.0,0.0,4.0,4.0,4.0,4.0,0.0,4.0,4.0,4.0,4.0,4.0,4.0
71.0,0.0,4174.871794871797,4264.615384615386,4174.871794871797,4184.615384615386,4184.615384615386,4204.615384615386,4187.692307692309,4178.46153846154,4185.128205128207,4186.666666666668,4176.923076923078,4190.769230769232,4148.71794871795,4171.794871794873,837.0,2047.0,2048.0,0.0,0.0,4.0,4.0,4.0,4.0,0.0,4.0,4.0,4.0,4.0,0.0,4.0,4.0,4.0,4.0,4.0,4.0
72.0,0.0,4173.333333333335,4261.0256410256425,4186.666666666668,4183.076923076925,4199.487179487181,4198.46153846154,4186.666666666668,4180.512820512822,4188.71794871795,4187.179487179489,4179.487179487181,4202.564102564104,4148.20512820513,4170.769230769232,613.0,2047.0,2048.0,0.0,0.0,4.0,4.0,4.0,4.0,0.0,4.0,4.0,4.0,4.0,0.0,4.0,4.0,4.0,4.0,4.0,4.0
73.0,0.0,4177.435897435899,4266.153846153848,4196.410256410258,4183.076923076925,4189.23076923077,4205.128205128207,4198.46153846154,4190.256410256412,4197.94871794872,4191.282051282053,4189.743589743592,4210.256410256412,4152.307692307694,4178.97435897436,0.0,2047.0,2048.0,0.0,0.0,4.0,4.0,4.0,4.0,0.0,4.0,4.0,4.0,4.0,0.0,4.0,4.0,4.0,4.0,4.0,4.0
74.0,0.0,4178.46153846154,4269.743589743592,4186.153846153848,4176.923076923078,4186.153846153848,4206.666666666668,4197.435897435899,4194.871794871797,4200.512820512822,4190.769230769232,4191.282051282053,4205.641025641027,4152.307692307694,4180.000000000002,861.0,2047.0,2048.0,0.0,0.0,4.0,4.0,4.0,4.0,0.0,4.0,4.0,4.0,4.0,0.0,4.0,4.0,4.0,4.0,4.0,4.0
75.0,0.0,4174.3589743589755,4264.615384615386,4178.46153846154,4169.23076923077,4194.871794871797,4197.94871794872,4185.128205128207,4185.128205128207,4192.307692307694,4186.153846153848,4181.0256410256425,4199.487179487181,4144.102564102565,4166.153846153848,832.0,2047.0,2048.0,0.0,0.0,4.0,4.0,4.0,4.0,0.0,4.0,4.0,4.0,4.0,0.0,4.0,4.0,4.0,4.0,4.0,4.0
76.0,0.0,4168.71794871795,4255.897435897437,4172.8205128205145,4170.256410256412,4183.589743589745,4198.46153846154,4184.615384615386,4180.000000000002,4187.179487179489,4184.615384615386,4177.94871794872,4189.23076923077,4143.589743589745,4155.897435897437,1237.0,2047.0,2048.0,0.0,0.0,4.0,4.0,4.0,4.0,0.0,4.0,4.0,4.0,4.0,0.0,4.0,4.0,4.0,4.0,4.0,4.0
77.0,0.0,4170.256410256412,4256.410256410258,4183.076923076925,4173.846153846155,4197.435897435899,4204.615384615386,4190.256410256412,4181.0256410256425,4185.641025641027,4187.692307692309,4178.46153846154,4197.94871794872,4145.128205128207,4163.076923076925,536.0,2047.0,2048.0,0.0,0.0,4.0,4.0,4.0,4.0,0.0,4.0,4.0,4.0,4.0,0.0,4.0,4.0,4.0,4.0,4.0,4.0
78.0,0.0,4166.666666666668,4258.46153846154,4175.384615384617,4171.794871794873,4189.23076923077,4201.0256410256425,4191.794871794873,4181.538461538463,4187.692307692309,4190.769230769232,4176.410256410258,4195.897435897437,4144.615384615386,4168.71794871795,861.0,2047.0,2048.0,0.0,0.0,4.0,4.0,4.0,4.0,0.0,4.0,4.0,4.0,4.0,0.0,4.0,4.0,4.0,4.0,4.0,4.0
79.0,0.0,4160.512820512822,4252.307692307694,4165.641025641027,4170.769230769232,4183.076923076925,4198.97435897436,4189.743589743592,4180.000000000002,4189.23076923077,4189.23076923077,4177.94871794872,4186.153846153848,4143.589743589745,4158.97435897436,832.0,2047.0,2048.0,0.0,0.0,4.0,4.0,4.0,4.0,0.0,4.0,4.0,4.0,4.0,0.0,4.0,4.0,4.0,4.0,4.0,4.0
