COUNTER,INTERPOLATED,AF3,F7,F3,FC5,T7,P7,O1,O2,P8,T8,FC6,F4,F8,AF4,RAW_CQ,GYROX,GYROY,MARKER,SYNC,CQ_AF3,CQ_F7,CQ_F3,CQ_FC5,CQ_T7,CQ_P7,CQ_O1,CQ_O2,CQ_P8,CQ_T8,CQ_FC6,CQ_F4,CQ_F8,CQ_AF4,CQ_CMS,CQ_DRL
55.0,0.0,4213.333333333335,4137.94871794872,4197.435897435899,4295.897435897437,4185.641025641027,4132.307692307694,4182.564102564104,4182.051282051283,4206.153846153848,4187.179487179489,4200.000000000002,4215.897435897437,4199.487179487181,4217.94871794872,0.0,2047.0,2048.0,0.0,0.0,0.0,0.0,0.0,0.0,0.0,0.0,0.0,0.0,0.0,0.0,0.0,0.0,0.0,0.0,0.0,0.0
56.0,0.0,4206.153846153848,4132.307692307694,4204.102564102565,4292.8205128205145,4190.256410256412,4129.743589743592,4184.615384615386,4183.589743589745,4211.282051282053,4185.641025641027,4199.487179487181,4216.923076923078,4192.307692307694,4212.307692307694,0.0,2047.0,2048.0,0.0,0.0,0.0,0.0,0.0,0.0,0.0,0.0,0.0,0.0,0.0,0.0,0.0,0.0,0.0,0.0,0.0,0.0
57.0,0.0,4206.666666666668,4133.846153846155,4203.589743589745,4299.487179487181,4186.666666666668,4136.410256410258,4185.128205128207,4186.666666666668,4214.871794871797,4185.641025641027,4204.102564102565,4215.897435897437,4201.538461538463,4213.333333333335,0.0,2047.0,2048.0,0.0,0.0,0.0,0.0,0.0,0.0,0.0,0.0,0.0,0.0,0.0,0.0,0.0,0.0,0.0,0.0,0.0,0.0
58.0,0.0,4205.641025641027,4134.871794871797,4194.3589743589755,4301.0256410256425,4185.128205128207,4135.384615384617,4186.666666666668,4177.94871794872,4207.692307692309,4186.153846153848,4206.153846153848,4214.3589743589755,4205.128205128207,4215.384615384617,0.0,2047.0,2048.0,0.0,0.0,0.0,0.0,0.0,0.0,0.0,0.0,0.0,0.0,0.0,0.0,0.0,0.0,0.0,0.0,0.0,0.0
59.0,0.0,4195.384615384617,4126.666666666668,4189.23076923077,4288.71794871795,4188.71794871795,4125.128205128207,4181.0256410256425,4166.153846153848,4201.538461538463,4186.153846153848,4190.769230769232,4214.3589743589755,4183.589743589745,4203.589743589745,0.0,2047.0,2048.0,0.0,0.0,0.0,0.0,0.0,0.0,0.0,0.0,0.0,0.0,0.0,0.0,0.0,0.0,0.0,0.0,0.0,0.0
60.0,0.0,4189.23076923077,4121.0256410256425,4190.256410256412,4285.128205128207,4185.641025641027,4121.538461538463,4173.333333333335,4164.615384615386,4196.923076923078,4185.128205128207,4179.487179487181,4206.666666666668,4175.897435897437,4193.846153846155,0.0,2047.0,2048.0,0.0,0.0,0.0,0.0,0.0,0.0,0.0,0.0,0.0,0.0,0.0,0.0,0.0,0.0,0.0,0.0,0.0,0.0
61.0,0.0,4195.897435897437,4128.71794871795,4196.410256410258,4297.435897435899,4185.128205128207,4126.666666666668,4174.3589743589755,4168.71794871795,4191.794871794873,4184.102564102565,4187.179487179489,4213.846153846155,4188.20512820513,4202.051282051283,0.0,2047.0,2048.0,0.0,0.0,0.0,0.0,0.0,0.0,0.0,0.0,0.0,0.0,0.0,0.0,0.0,0.0,0.0,0.0,0.0,0.0
62.0,0.0,4200.000000000002,4141.0256410256425,4190.256410256412,4290.769230769232,4186.153846153848,4125.641025641027,4172.307692307694,4165.641025641027,4192.8205128205145,4184.615384615386,4188.20512820513,4212.8205128205145,4183.589743589745,4209.743589743592,0.0,2047.0,2048.0,0.0,0.0,0.0,0.0,0.0,0.0,0.0,0.0,0.0,0.0,0.0,0.0,0.0,0.0,0.0,0.0,0.0,0.0
63.0,0.0,4201.0256410256425,4152.307692307694,4193.846153846155,4276.410256410258,4189.743589743592,4121.0256410256425,4167.692307692309,4166.153846153848,4197.94871794872,4186.153846153848,4179.487179487181,4213.846153846155,4173.333333333335,4212.8205128205145,0.0,2047.0,2048.0,0.0,0.0,0.0,0.0,0.0,0.0,0.0,0.0,0.0,0.0,0.0,0.0,0.0,0.0,0.0,0.0,0.0,0.0
64.0,0.0,4205.128205128207,4165.641025641027,4210.769230769232,4289.23076923077,4191.794871794873,4128.71794871795,4172.307692307694,4176.410256410258,4203.076923076925,4185.641025641027,4188.20512820513,4229.23076923077,4183.589743589745,4214.3589743589755,688.0,2047.0,2048.0,0.0,0.0,0.0,0.0,4.0,0.0,0.0,0.0,0.0,0.0,0.0,0.0,0.0,0.0,0.0,0.0,4.0,4.0
65.0,0.0,4205.128205128207,4170.769230769232,4204.102564102565,4294.871794871797,4184.615384615386,4138.46153846154,4177.435897435899,4178.97435897436,4202.564102564104,4184.102564102565,4187.179487179489,4223.589743589745,4183.589743589745,4213.333333333335,835.0,2047.0,2048.0,0.0,0.0,0.0,0.0,4.0,4.0,0.0,0.0,0.0,0.0,0.0,0.0,0.0,0.0,0.0,0.0,4.0,4.0
66.0,0.0,4206.153846153848,4173.333333333335,4196.923076923078,4280.512820512822,4184.102564102565,4137.435897435899,4176.923076923078,4174.3589743589755,4200.000000000002,4184.102564102565,4165.641025641027,4222.564102564104,4165.641025641027,4219.487179487181,806.0,2047.0,2048.0,0.0,0.0,4.0,0.0,4.0,4.0,0.0,0.0,0.0,0.0,0.0,0.0,0.0,0.0,0.0,0.0,4.0,4.0
67.0,0.0,4205.641025641027,4178.97435897436,4197.435897435899,4284.102564102565,4186.153846153848,4137.94871794872,4185.641025641027,4177.94871794872,4200.512820512822,4186.153846153848,4175.384615384617,4224.615384615386,4171.794871794873,4218.46153846154,833.0,2047.0,2048.0,0.0,0.0,4.0,4.0,4.0,4.0,0.0,0.0,0.0,0.0,0.0,0.0,0.0,0.0,0.0,0.0,4.0,4.0
68.0,0.0,4200.512820512822,4189.743589743592,4191.282051282053,4296.923076923078,4186.666666666668,4143.589743589745,4194.871794871797,4183.589743589745,4205.128205128207,4186.666666666668,4208.20512820513,4215.384615384617,4196.923076923078,4202.564102564104,0.0,2047.0,2048.0,0.0,0.0,4.0,4.0,4.0,4.0,0.0,0.0,0.0,0.0,0.0,0.0,0.0,0.0,0.0,0.0,4.0,4.0
69.0,0.0,4194.871794871797,4197.435897435899,4187.692307692309,4290.769230769232,4187.179487179489,4141.0256410256425,4184.102564102565,4172.307692307694,4204.102564102565,4185.641025641027,4195.897435897437,4215.384615384617,4193.333333333335,4202.051282051283,785.0,2047.0,2048.0,0.0,0.0,4.0,4.0,4.0,4.0,0.0,4.0,0.0,0.0,0.0,0.0,0.0,0.0,0.0,0.0,4.0,4.0
70.0,0.0,4194.3589743589755,4194.3589743589755,4197.94871794872,4262.051282051283,4184.615384615386,4135.897435897437,4181.538461538463,4167.692307692309,4199.487179487181,4185.128205128207,4157.94871794872,4220.512820512822,4170.769230769232,4220.000000000002,807.0,2047.0,2048.0,0.0,0.0,4.0,4.0,4.0,4.0,0.0,4.0,4.0,0.0,0.0,0.0,0.0,0.0,0.0,0.0,4.0,4.0
71.0,0.0,4197.94871794872,4188.20512820513,4211.282051282053,4243.589743589745,4187.692307692309,4138.46153846154,4194.3589743589755,4181.538461538463,4202.564102564104,4185.641025641027,4172.307692307694,4225.641025641027,4170.769230769232,4224.102564102565,815.0,2047.0,2048.0,0.0,0.0,4.0,4.0,4.0,4.0,0.0,4.0,4.0,4.0,0.0,0.0,0.0,0.0,0.0,0.0,4.0,4.0
72.0,0.0,4184.615384615386,4180.000000000002,4186.666666666668,4262.564102564104,4186.666666666668,4136.923076923078,4193.846153846155,4183.076923076925,4204.102564102565,4186.153846153848,4205.641025641027,4212.8205128205145,4183.589743589745,4200.512820512822,645.0,2047.0,2048.0,0.0,0.0,4.0,4.0,4.0,4.0,0.0,4.0,4.0,4.0,4.0,0.0,0.0,0.0,0.0,0.0,4.0,4.0
73.0,0.0,4173.333333333335,4174.3589743589755,4160.512820512822,4288.20512820513,4184.102564102565,4134.871794871797,4181.0256410256425,4170.769230769232,4200.000000000002,4186.153846153848,4197.435897435899,4198.46153846154,4184.615384615386,4180.512820512822,0.0,2047.0,2048.0,0.0,0.0,4.0,4.0,4.0,4.0,0.0,4.0,4.0,4.0,4.0,0.0,0.0,0.0,0.0,0.0,4.0,4.0
74.0,0.0,4185.641025641027,4172.8205128205145,4184.102564102565,4282.564102564104,4190.769230769232,4136.923076923078,4180.000000000002,4166.666666666668,4197.94871794872,4186.153846153848,4184.102564102565,4208.71794871795,4178.97435897436,4185.128205128207,859.0,2047.0,2048.0,0.0,0.0,4.0,4.0,4.0,4.0,0.0,4.0,4.0,4.0,4.0,0.0,0.0,0.0,4.0,0.0,4.0,4.0
75.0,0.0,4187.692307692309,4163.076923076925,4190.769230769232,4271.282051282053,4186.666666666668,4132.8205128205145,4183.589743589745,4170.769230769232,4198.97435897436,4184.615384615386,4193.846153846155,4208.20512820513,4176.923076923078,4193.333333333335,828.0,2047.0,2048.0,0.0,0.0,4.0,4.0,4.0,4.0,0.0,4.0,4.0,4.0,4.0,0.0,0.0,0.0,4.0,4.0,4.0,4.0
76.0,0.0,4180.512820512822,4150.256410256412,4170.256410256412,4278.97435897436,4181.0256410256425,4128.71794871795,4178.46153846154,4171.794871794873,4202.051282051283,4184.615384615386,4200.512820512822,4209.23076923077,4176.923076923078,4193.333333333335,852.0,2047.0,2048.0,0.0,0.0,4.0,4.0,4.0,4.0,0.0,4.0,4.0,4.0,4.0,0.0,4.0,0.0,4.0,4.0,4.0,4.0
77.0,0.0,4187.179487179489,4147.692307692309,4176.410256410258,4286.666666666668,4185.641025641027,4133.846153846155,4176.923076923078,4171.794871794873,4205.128205128207,4185.641025641027,4198.97435897436,4215.384615384617,4184.615384615386,4197.435897435899,373.0,2047.0,2048.0,0.0,0.0,4.0,4.0,4.0,4.0,0.0,4.0,4.0,4.0,4.0,0.0,4.0,4.0,4.0,4.0,4.0,4.0
78.0,0.0,4185.128205128207,4145.128205128207,4189.743589743592,4282.564102564104,4190.256410256412,4138.46153846154,4182.564102564104,4174.871794871797,4203.589743589745,4185.128205128207,4200.000000000002,4210.256410256412,4187.179487179489,4200.512820512822,859.0,2047.0,2048.0,0.0,0.0,4.0,4.0,4.0,4.0,0.0,4.0,4.0,4.0,4.0,0.0,4.0,4.0,4.0,4.0,4.0,4.0
79.0,0.0,4176.923076923078,4136.923076923078,4191.282051282053,4283.589743589745,4189.743589743592,4138.97435897436,4191.794871794873,4186.153846153848,4206.666666666668,4185.128205128207,4200.512820512822,4215.897435897437,4183.589743589745,4199.487179487181,828.0,2047.0,2048.0,0.0,0.0,4.0,4.0,4.0,4.0,0.0,4.0,4.0,4.0,4.0,0.0,4.0,4.0,4.0,4.0,4.0,4.0
80.0,0.0,4187.179487179489,4138.46153846154,4186.153846153848,4291.794871794873,4182.564102564104,4141.0256410256425,4193.333333333335,4191.282051282053,4214.3589743589755,4186.153846153848,4203.589743589745,4216.923076923078,4190.256410256412,4204.615384615386,852.0,2047.0,2048.0,0.0,0.0,4.0,4.0,4.0,4.0,0.0,4.0,4.0,4.0,4.0,0.0,4.0,4.0,4.0,4.0,4.0,4.0
81.0,0.0,4195.897435897437,4143.076923076925,4183.589743589745,4289.743589743592,4184.102564102565,4136.923076923078,4175.897435897437,4173.333333333335,4206.666666666668,4186.666666666668,4201.538461538463,4214.3589743589755,4189.743589743592,4205.128205128207,373.0,2047.0,2048.0,0.0,0.0,4.0,4.0,4.0,4.0,0.0,4.0,4.0,4.0,4.0,0.0,4.0,4.0,4.0,4.0,4.0,4.0
82.0,0.0,4187.692307692309,4135.897435897437,4188.20512820513,4281.0256410256425,4188.20512820513,4129.743589743592,4165.641025641027,4160.512820512822,4194.3589743589755,4186.153846153848,4196.923076923078,4210.769230769232,4181.538461538463,4202.051282051283,859.0,2047.0,2048.0,0.0,0.0,4.0,4.0,4.0,4.0,0.0,4.0,4.0,4.0,4.0,0.0,4.0,4.0,4.0,4.0,4.0,4.0
83.0,0.0,4187.179487179489,4138.46153846154,4195.897435897437,4288.20512820513,4184.102564102565,4134.3589743589755,4177.94871794872,4170.769230769232,4199.487179487181,4185.641025641027,4205.641025641027,4211.794871794873,4190.256410256412,4209.743589743592,828.0,2047.0,2048.0,0.0,0.0,4.0,4.0,4.0,4.0,0.0,4.0,4.0,4.0,4.0,0.0,4.0,4.0,4.0,4.0,4.0,4.0
84.0,0.0,4200.000000000002,4153.846153846155,4198.97435897436,4301.538461538463,4184.102564102565,4142.051282051283,4186.153846153848,4180.000000000002,4207.179487179489,4184.615384615386,4212.8205128205145,4223.589743589745,4202.051282051283,4219.487179487181,852.0,2047.0,2048.0,0.0,0.0,4.0,4.0,4.0,4.0,0.0,4.0,4.0,4.0,4.0,0.0,4.0,4.0,4.0,4.0,4.0,4.0
85.0,0.0,4197.94871794872,4155.897435897437,4185.641025641027,4296.923076923078,4183.589743589745,4140.000000000002,4178.97435897436,4176.410256410258,4201.0256410256425,4185.128205128207,4205.641025641027,4214.871794871797,4192.8205128205145,4216.410256410258,373.0,2047.0,2048.0,0.0,0.0,4.0,4.0,4.0,4.0,0.0,4.0,4.0,4.0,4.0,0.0,4.0,4.0,4.0,4.0,4.0,4.0
86.0,0.0,4191.282051282053,4151.282051282053,4187.692307692309,4286.666666666668,4189.23076923077,4136.923076923078,4176.410256410258,4171.794871794873,4195.897435897437,4186.666666666668,4197.435897435899,4210.256410256412,4179.487179487181,4212.307692307694,859.0,2047.0,2048.0,0.0,0.0,4.0,4.0,4.0,4.0,0.0,4.0,4.0,4.0,4.0,0.0,4.0,4.0,4.0,4.0,4.0,4.0
87.0,0.0,4200.512820512822,4163.076923076925,4201.538461538463,4285.641025641027,4189.23076923077,4141.0256410256425,4182.051282051283,4176.923076923078,4201.0256410256425,4185.641025641027,4202.564102564104,4216.410256410258,4184.102564102565,4220.512820512822,828.0,2047.0,2048.0,0.0,0.0,4.0,4.0,4.0,4.0,0.0,4.0,4.0,4.0,4.0,0.0,4.0,4.0,4.0,4.0,4.0,4.0
88.0,0.0,4205.641025641027,4176.410256410258,4197.94871794872,4284.615384615386,4182.051282051283,4143.076923076925,4187.692307692309,4184.615384615386,4202.564102564104,4183.076923076925,4204.615384615386,4215.897435897437,4192.307692307694,4225.641025641027,852.0,2047.0,2048.0,0.0,0.0,4.0,4.0,4.0,4.0,0.0,4.0,4.0,4.0,4.0,0.0,4.0,4.0,4.0,4.0,4.0,4.0
89.0,0.0,4203.589743589745,4181.538461538463,4195.897435897437,4286.666666666668,4186.153846153848,4141.538461538463,4189.23076923077,4185.128205128207,4197.435897435899,4185.641025641027,4188.20512820513,4224.102564102565,4187.179487179489,4224.615384615386,373.0,2047.0,2048.0,0.0,0.0,4.0,4.0,4.0,4.0,0.0,4.0,4.0,4.0,4.0,0.0,4.0,4.0,4.0,4.0,4.0,4.0
90.0,0.0,4209.23076923077,4198.97435897436,4203.076923076925,4291.282051282053,4187.179487179489,4146.153846153848,4191.282051282053,4185.641025641027,4197.94871794872,4187.179487179489,4187.179487179489,4222.564102564104,4182.051282051283,4229.743589743592,859.0,2047.0,2048.0,0.0,0.0,4.0,4.0,4.0,4.0,0.0,4.0,4.0,4.0,4.0,0.0,4.0,4.0,4.0,4.0,4.0,4.0
91.0,0.0,4214.871794871797,4219.487179487181,4207.692307692309,4292.307692307694,4185.641025641027,4153.846153846155,4188.20512820513,4188.20512820513,4203.589743589745,4185.128205128207,4210.256410256412,4220.000000000002,4187.179487179489,4228.71794871795,828.0,2047.0,2048.0,0.0,0.0,4.0,4.0,4.0,4.0,0.0,4.0,4.0,4.0,4.0,0.0,4.0,4.0,4.0,4.0,4.0,4.0
92.0,0.0,4211.282051282053,4228.20512820513,4201.538461538463,4298.97435897436,4187.179487179489,4151.282051282053,4182.051282051283,4187.692307692309,4204.615384615386,4185.641025641027,4213.333333333335,4226.666666666668,4189.743589743592,4222.564102564104,852.0,2047.0,2048.0,0.0,0.0,4.0,4.0,4.0,4.0,0.0,4.0,4.0,4.0,4.0,0.0,4.0,4.0,4.0,4.0,4.0,4.0
93.0,0.0,4212.307692307694,4236.410256410258,4203.589743589745,4293.846153846155,4185.641025641027,4146.666666666668,4187.179487179489,4189.23076923077,4203.076923076925,4186.666666666668,4193.846153846155,4223.589743589745,4185.641025641027,4229.23076923077,373.0,2047.0,2048.0,0.0,0.0,4.0,4.0,4.0,4.0,0.0,4.0,4.0,4.0,4.0,0.0,4.0,4.0,4.0,4.0,4.0,4.0
94.0,0.0,4212.8205128205145,4235.384615384617,4211.282051282053,4275.384615384617,4187.692307692309,4146.153846153848,4189.743589743592,4188.71794871795,4204.102564102565,4185.641025641027,4195.384615384617,4222.051282051283,4184.615384615386,4232.307692307694,859.0,2047.0,2048.0,0.0,0.0,4.0,4.0,4.0,4.0,0.0,4.0,4.0,4.0,4.0,0.0,4.0,4.0,4.0,4.0,4.0,4.0
95.0,0.0,4200.512820512822,4229.23076923077,4193.333333333335,4277.94871794872,4186.153846153848,4149.23076923077,4180.000000000002,4181.538461538463,4202.051282051283,4185.641025641027,4205.128205128207,4213.333333333335,4186.153846153848,4214.871794871797,828.0,2047.0,2048.0,0.0,0.0,4.0,4.0,4.0,4.0,0.0,4.0,4.0,4.0,4.0,0.0,4.0,4.0,4.0,4.0,4.0,4.0
96.0,0.0,4205.128205128207,4234.3589743589755,4192.8205128205145,4284.615384615386,4185.128205128207,4153.846153846155,4182.564102564104,4183.589743589745,4200.512820512822,4186.153846153848,4197.435897435899,4217.435897435899,4184.615384615386,4215.384615384617,852.0,2047.0,2048.0,0.0,0.0,4.0,4.0,4.0,4.0,0.0,4.0,4.0,4.0,4.0,0.0,4.0,4.0,4.0,4.0,4.0,4.0
97.0,0.0,4211.282051282053,4229.23076923077,4206.666666666668,4268.71794871795,4188.20512820513,4151.282051282053,4188.20512820513,4186.666666666668,4202.564102564104,4185.128205128207,4197.94871794872,4226.666666666668,4181.538461538463,4223.589743589745,373.0,2047.0,2048.0,0.0,0.0,4.0,4.0,4.0,4.0,0.0,4.0,4.0,4.0,4.0,0.0,4.0,4.0,4.0,4.0,4.0,4.0
98.0,0.0,4186.153846153848,4211.794871794873,4176.410256410258,4260.512820512822,4187.179487179489,4138.97435897436,4173.333333333335,4173.333333333335,4195.897435897437,4184.102564102565,4202.564102564104,4207.692307692309,4182.564102564104,4199.487179487181,859.0,2047.0,2048.0,0.0,0.0,4.0,4.0,4.0,4.0,0.0,4.0,4.0,4.0,4.0,0.0,4.0,4.0,4.0,4.0,4.0,4.0
99.0,0.0,4176.410256410258,4215.384615384617,4163.589743589745,4271.282051282053,4188.71794871795,4139.487179487181,4166.153846153848,4167.179487179489,4190.256410256412,4184.615384615386,4197.94871794872,4206.666666666668,4188.20512820513,4188.71794871795,828.0,2047.0,2048.0,0.0,0.0,4.0,4.0,4.0,4.0,0.0,4.0,4.0,4.0,4.0,0.0,4.0,4.0,4.0,4.0,4.0,4.0
100.0,0.0,4191.282051282053,4215.897435897437,4187.692307692309,4272.8205128205145,4187.692307692309,4157.94871794872,4184.102564102565,4184.102564102565,4198.97435897436,4184.615384615386,4205.128205128207,4213.846153846155,4192.307692307694,4206.153846153848,852.0,2047.0,2048.0,0.0,0.0,4.0,4.0,4.0,4.0,0.0,4.0,4.0,4.0,4.0,0.0,4.0,4.0,4.0,4.0,4.0,4.0
101.0,0.0,4195.897435897437,4201.0256410256425,4191.282051282053,4271.794871794873,4187.179487179489,4165.641025641027,4197.435897435899,4194.3589743589755,4206.666666666668,4185.128205128207,4209.743589743592,4211.794871794873,4195.897435897437,4214.3589743589755,373.0,2047.0,2048.0,0.0,0.0,4.0,4.0,4.0,4.0,0.0,4.0,4.0,4.0,4.0,0.0,4.0,4.0,4.0,4.0,4.0,4.0
102.0,0.0,4195.897435897437,4198.97435897436,4186.153846153848,4285.641025641027,4188.71794871795,4157.94871794872,4193.333333333335,4187.692307692309,4204.615384615386,4186.666666666668,4201.538461538463,4217.94871794872,4198.97435897436,4214.3589743589755,859.0,2047.0,2048.0,0.0,0.0,4.0,4.0,4.0,4.0,0.0,4.0,4.0,4.0,4.0,0.0,4.0,4.0,4.0,4.0,4.0,4.0
103.0,0.0,4193.846153846155,4196.410256410258,4180.000000000002,4291.282051282053,4185.641025641027,4153.333333333335,4188.71794871795,4184.102564102565,4201.0256410256425,4185.641025641027,4207.179487179489,4212.307692307694,4200.512820512822,4213.846153846155,828.0,2047.0,2048.0,0.0,0.0,4.0,4.0,4.0,4.0,0.0,4.0,4.0,4.0,4.0,0.0,4.0,4.0,4.0,4.0,4.0,4.0
104.0,0.0,4200.000000000002,4192.307692307694,4187.179487179489,4289.23076923077,4188.20512820513,4152.8205128205145,4186.153846153848,4184.615384615386,4203.589743589745,4185.128205128207,4223.076923076925,4212.307692307694,4206.666666666668,4218.97435897436,852.0,2047.0,2048.0,0.0,0.0,4.0,4.0,4.0,4.0,0.0,4.0,4.0,4.0,4.0,0.0,4.0,4.0,4.0,4.0,4.0,4.0
105.0,0.0,4209.23076923077,4194.3589743589755,4204.102564102565,4288.20512820513,4187.692307692309,4154.871794871797,4187.179487179489,4186.666666666668,4206.153846153848,4186.153846153848,4222.564102564104,4217.94871794872,4218.97435897436,4226.666666666668,373.0,2047.0,2048.0,0.0,0.0,4.0,4.0,4.0,4.0,0.0,4.0,4.0,4.0,4.0,0.0,4.0,4.0,4.0,4.0,4.0,4.0
106.0,0.0,4203.076923076925,4185.641025641027,4195.897435897437,4291.282051282053,4185.128205128207,4157.94871794872,4195.384615384617,4188.71794871795,4198.46153846154,4186.153846153848,4211.282051282053,4216.410256410258,4214.871794871797,4217.435897435899,859.0,2047.0,2048.0,0.0,0.0,4.0,4.0,4.0,4.0,0.0,4.0,4.0,4.0,4.0,0.0,4.0,4.0,4.0,4.0,4.0,4.0
107.0,0.0,4197.94871794872,4177.435897435899,4180.512820512822,4296.410256410258,4188.71794871795,4158.46153846154,4189.23076923077,4185.128205128207,4182.051282051283,4185.128205128207,4205.641025641027,4216.410256410258,4201.0256410256425,4206.153846153848,828.0,2047.0,2048.0,0.0,0.0,4.0,4.0,4.0,4.0,0.0,4.0,4.0,4.0,4.0,0.0,4.0,4.0,4.0,4.0,4.0,4.0
108.0,0.0,4203.589743589745,4180.512820512822,4182.564102564104,4292.307692307694,4186.153846153848,4153.333333333335,4167.179487179489,4181.0256410256425,4170.769230769232,4185.641025641027,4199.487179487181,4212.8205128205145,4204.102564102565,4213.846153846155,852.0,2047.0,2048.0,0.0,0.0,4.0,4.0,4.0,4.0,0.0,4.0,4.0,4.0,4.0,0.0,4.0,4.0,4.0,4.0,4.0,4.0
109.0,0.0,4205.641025641027,4177.94871794872,4195.897435897437,4287.179487179489,4187.179487179489,4149.743589743592,4164.102564102565,4182.564102564104,4172.307692307694,4186.153846153848,4200.000000000002,4220.000000000002,4211.794871794873,4221.0256410256425,373.0,2047.0,2048.0,0.0,0.0,4.0,4.0,4.0,4.0,0.0,4.0,4.0,4.0,4.0,0.0,4.0,4.0,4.0,4.0,4.0,4.0
110.0,0.0,4200.000000000002,4169.23076923077,4192.307692307694,4283.076923076925,4186.666666666668,4148.71794871795,4180.512820512822,4182.051282051283,4174.871794871797,4185.641025641027,4199.487179487181,4217.94871794872,4208.20512820513,4214.3589743589755,859.0,2047.0,2048.0,0.0,0.0,4.0,4.0,4.0,4.0,0.0,4.0,4.0,4.0,4.0,0.0,4.0,4.0,4.0,4.0,4.0,4.0
111.0,0.0,4194.3589743589755,4165.128205128207,4178.97435897436,4277.435897435899,4182.564102564104,4143.076923076925,4176.410256410258,4171.794871794873,4170.769230769232,4186.153846153848,4188.20512820513,4205.128205128207,4197.435897435899,4204.102564102565,828.0,2047.0,2048.0,0.0,0.0,4.0,4.0,4.0,4.0,0.0,4.0,4.0,4.0,4.0,0.0,4.0,4.0,4.0,4.0,4.0,4.0
112.0,0.0,4197.435897435899,4166.666666666668,4186.153846153848,4275.897435897437,4185.128205128207,4144.102564102565,4168.20512820513,4167.179487179489,4170.256410256412,4185.641025641027,4189.743589743592,4210.256410256412,4195.384615384617,4207.692307692309,852.0,2047.0,2048.0,0.0,0.0,4.0,4.0,4.0,4.0,0.0,4.0,4.0,4.0,4.0,0.0,4.0,4.0,4.0,4.0,4.0,4.0
113.0,0.0,4208.20512820513,4177.435897435899,4202.051282051283,4288.20512820513,4184.102564102565,4154.871794871797,4184.102564102565,4177.94871794872,4179.487179487181,4184.615384615386,4201.0256410256425,4215.384615384617,4205.641025641027,4222.564102564104,373.0,2047.0,2048.0,0.0,0.0,4.0,4.0,4.0,4.0,0.0,4.0,4.0,4.0,4.0,0.0,4.0,4.0,4.0,4.0,4.0,4.0
114.0,0.0,4212.307692307694,4186.666666666668,4207.179487179489,4295.897435897437,4185.128205128207,4162.564102564104,4193.846153846155,4188.20512820513,4186.153846153848,4185.641025641027,4206.153846153848,4219.487179487181,4213.333333333335,4225.641025641027,859.0,2047.0,2048.0,0.0,0.0,4.0,4.0,4.0,4.0,0.0,4.0,4.0,4.0,4.0,0.0,4.0,4.0,4.0,4.0,4.0,4.0
115.0,0.0,4215.384615384617,4189.23076923077,4202.051282051283,4286.666666666668,4186.666666666668,4163.076923076925,4184.615384615386,4188.20512820513,4188.20512820513,4186.666666666668,4205.128205128207,4222.051282051283,4219.487179487181,4230.256410256412,828.0,2047.0,2048.0,0.0,0.0,4.0,4.0,4.0,4.0,0.0,4.0,4.0,4.0,4.0,0.0,4.0,4.0,4.0,4.0,4.0,4.0
116.0,0.0,4229.23076923077,4193.333333333335,4209.23076923077,4282.051282051283,4185.128205128207,4168.20512820513,4187.179487179489,4190.769230769232,4193.333333333335,4185.128205128207,4202.051282051283,4227.692307692309,4221.538461538463,4251.794871794873,852.0,2047.0,2048.0,0.0,0.0,4.0,4.0,4.0,4.0,0.0,4.0,4.0,4.0,4.0,0.0,4.0,4.0,4.0,4.0,4.0,4.0
117.0,0.0,4218.46153846154,4187.179487179489,4209.743589743592,4288.71794871795,4189.23076923077,4174.3589743589755,4193.846153846155,4190.256410256412,4190.256410256412,4186.153846153848,4204.102564102565,4228.20512820513,4217.94871794872,4242.051282051283,373.0,2047.0,2048.0,0.0,0.0,4.0,4.0,4.0,4.0,0.0,4.0,4.0,4.0,4.0,0.0,4.0,4.0,4.0,4.0,4.0,4.0
118.0,0.0,4190.769230769232,4180.000000000002,4186.666666666668,4274.3589743589755,4188.20512820513,4165.641025641027,4187.692307692309,4183.589743589745,4181.538461538463,4187.692307692309,4203.076923076925,4207.179487179489,4209.23076923077,4208.71794871795,859.0,2047.0,2048.0,0.0,0.0,4.0,4.0,4.0,4.0,0.0,4.0,4.0,4.0,4.0,0.0,4.0,4.0,4.0,4.0,4.0,4.0
119.0,0.0,4198.46153846154,4183.589743589745,4191.282051282053,4246.666666666668,4185.128205128207,4152.8205128205145,4191.282051282053,4183.589743589745,4181.0256410256425,4186.153846153848,4186.153846153848,4211.794871794873,4196.410256410258,4209.743589743592,828.0,2047.0,2048.0,0.0,0.0,4.0,4.0,4.0,4.0,0.0,4.0,4.0,4.0,4.0,0.0,4.0,4.0,4.0,4.0,4.0,4.0
120.0,0.0,4210.256410256412,4179.487179487181,4202.051282051283,4256.410256410258,4184.615384615386,4155.897435897437,4197.94871794872,4187.692307692309,4184.102564102565,4184.615384615386,4173.846153846155,4225.128205128207,4189.23076923077,4222.564102564104,852.0,2047.0,2048.0,0.0,0.0,4.0,4.0,4.0,4.0,0.0,4.0,4.0,4.0,4.0,0.0,4.0,4.0,4.0,4.0,4.0,4.0
121.0,0.0,4195.384615384617,4175.384615384617,4183.076923076925,4278.46153846154,4185.128205128207,4165.128205128207,4188.71794871795,4182.564102564104,4183.076923076925,4186.666666666668,4182.051282051283,4211.794871794873,4196.410256410258,4213.846153846155,373.0,2047.0,2048.0,0.0,0.0,4.0,4.0,4.0,4.0,0.0,4.0,4.0,4.0,4.0,0.0,4.0,4.0,4.0,4.0,4.0,4.0
122.0,0.0,4198.46153846154,4194.871794871797,4190.256410256412,4269.23076923077,4190.769230769232,4162.564102564104,4182.051282051283,4179.487179487181,4186.153846153848,4186.153846153848,4189.743589743592,4215.384615384617,4210.256410256412,4215.897435897437,859.0,2047.0,2048.0,0.0,0.0,4.0,4.0,4.0,4.0,0.0,4.0,4.0,4.0,4.0,0.0,4.0,4.0,4.0,4.0,4.0,4.0
123.0,0.0,4211.282051282053,4205.641025641027,4206.666666666668,4260.512820512822,4188.71794871795,4161.0256410256425,4186.153846153848,4187.179487179489,4189.23076923077,4183.589743589745,4193.333333333335,4220.512820512822,4214.3589743589755,4224.102564102565,828.0,2047.0,2048.0,0.0,0.0,4.0,4.0,4.0,4.0,0.0,4.0,4.0,4.0,4.0,0.0,4.0,4.0,4.0,4.0,4.0,4.0
124.0,0.0,4197.435897435899,4184.102564102565,4187.692307692309,4277.435897435899,4186.153846153848,4167.179487179489,4186.153846153848,4190.769230769232,4187.692307692309,4184.615384615386,4200.512820512822,4214.3589743589755,4210.769230769232,4208.20512820513,852.0,2047.0,2048.0,0.0,0.0,4.0,4.0,4.0,4.0,0.0,4.0,4.0,4.0,4.0,0.0,4.0,4.0,4.0,4.0,4.0,4.0
125.0,0.0,4177.435897435899,4165.641025641027,4167.179487179489,4281.538461538463,4184.615384615386,4164.102564102565,4183.589743589745,4186.666666666668,4187.179487179489,4186.153846153848,4203.076923076925,4206.153846153848,4200.000000000002,4188.20512820513,373.0,2047.0,2048.0,0.0,0.0,4.0,4.0,4.0,4.0,0.0,4.0,4.0,4.0,4.0,0.0,4.0,4.0,4.0,4.0,4.0,4.0
126.0,0.0,4171.282051282053,4169.23076923077,4167.692307692309,4265.128205128207,4184.615384615386,4153.333333333335,4185.128205128207,4183.076923076925,4186.153846153848,4184.102564102565,4195.897435897437,4197.435897435899,4188.71794871795,4182.564102564104,859.0,2047.0,2048.0,0.0,0.0,4.0,4.0,4.0,4.0,0.0,4.0,4.0,4.0,4.0,0.0,4.0,4.0,4.0,4.0,4.0,4.0
127.0,0.0,4180.000000000002,4169.743589743592,4177.435897435899,4265.641025641027,4191.282051282053,4152.307692307694,4185.128205128207,4183.589743589745,4184.615384615386,4185.128205128207,4190.256410256412,4207.179487179489,4188.71794871795,4187.692307692309,828.0,2047.0,2048.0,0.0,0.0,4.0,4.0,4.0,4.0,0.0,4.0,4.0,4.0,4.0,0.0,4.0,4.0,4.0,4.0,4.0,4.0
128.0,0.0,4186.666666666668,4157.435897435899,4176.923076923078,4268.71794871795,4187.692307692309,4156.410256410258,4188.20512820513,4185.641025641027,4184.615384615386,4186.666666666668,4191.794871794873,4210.256410256412,4191.282051282053,4195.897435897437,852.0,2047.0,2048.0,0.0,0.0,4.0,4.0,4.0,4.0,0.0,4.0,4.0,4.0,4.0,0.0,4.0,4.0,4.0,4.0,4.0,4.0
0.0,0.0,4181.538461538463,4150.256410256412,4178.46153846154,4266.153846153848,4186.153846153848,4155.384615384617,4182.564102564104,4180.512820512822,4182.564102564104,4184.615384615386,4197.435897435899,4208.20512820513,4191.282051282053,4196.410256410258,690.0,2047.0,2048.0,0.0,0.0,4.0,4.0,4.0,4.0,0.0,4.0,4.0,4.0,4.0,0.0,4.0,4.0,4.0,4.0,4.0,4.0
1.0,0.0,4183.589743589745,4153.333333333335,4186.153846153848,4270.769230769232,4189.23076923077,4152.307692307694,4170.769230769232,4174.871794871797,4182.051282051283,4185.128205128207,4201.538461538463,4214.871794871797,4196.410256410258,4199.487179487181,837.0,2047.0,2048.0,0.0,0.0,4.0,4.0,4.0,4.0,0.0,4.0,4.0,4.0,4.0,0.0,4.0,4.0,4.0,4.0,4.0,4.0
2.0,0.0,4195.384615384617,4160.512820512822,4186.666666666668,4279.487179487181,4186.153846153848,4153.846153846155,4176.410256410258,4182.051282051283,4187.692307692309,4186.153846153848,4204.102564102565,4212.307692307694,4205.641025641027,4210.769230769232,806.0,2047.0,2048.0,0.0,0.0,4.0,4.0,4.0,4.0,0.0,4.0,4.0,4.0,4.0,0.0,4.0,4.0,4.0,4.0,4.0,4.0
3.0,0.0,4197.94871794872,4161.538461538463,4193.333333333335,4282.564102564104,4189.23076923077,4159.487179487181,4187.692307692309,4187.179487179489,4190.769230769232,4184.615384615386,4206.153846153848,4215.384615384617,4207.179487179489,4214.3589743589755,820.0,2047.0,2048.0,0.0,0.0,4.0,4.0,4.0,4.0,0.0,4.0,4.0,4.0,4.0,0.0,4.0,4.0,4.0,4.0,4.0,4.0
4.0,0.0,4187.692307692309,4155.897435897437,4191.794871794873,4277.94871794872,4188.71794871795,4157.94871794872,4185.641025641027,4181.0256410256425,4186.153846153848,4185.128205128207,4198.97435897436,4211.282051282053,4198.46153846154,4198.97435897436,0.0,2047.0,2048.0,0.0,0.0,4.0,4.0,4.0,4.0,0.0,4.0,4.0,4.0,4.0,0.0,4.0,4.0,4.0,4.0,4.0,4.0
5.0,0.0,4186.153846153848,4154.3589743589755,4181.0256410256425,4275.897435897437,4187.179487179489,4153.846153846155,4182.051282051283,4181.538461538463,4186.153846153848,4185.641025641027,4190.256410256412,4207.179487179489,4188.20512820513,4189.743589743592,785.0,2047.0,2048.0,0.0,0.0,4.0,4.0,4.0,4.0,0.0,4.0,4.0,4.0,4.0,0.0,4.0,4.0,4.0,4.0,4.0,4.0
6.0,0.0,4186.666666666668,4156.410256410258,4178.46153846154,4269.23076923077,4187.692307692309,4153.333333333335,4177.435897435899,4182.051282051283,4189.743589743592,4184.102564102565,4186.666666666668,4212.8205128205145,4184.102564102565,4194.3589743589755,765.0,2047.0,2048.0,0.0,0.0,4.0,4.0,4.0,4.0,0.0,4.0,4.0,4.0,4.0,0.0,4.0,4.0,4.0,4.0,4.0,4.0
7.0,0.0,4174.3589743589755,4152.307692307694,4174.3589743589755,4259.487179487181,4182.564102564104,4151.282051282053,4166.666666666668,4172.307692307694,4185.641025641027,4184.615384615386,4185.641025641027,4206.153846153848,4183.076923076925,4191.282051282053,783.0,2047.0,2048.0,0.0,0.0,4.0,4.0,4.0,4.0,0.0,4.0,4.0,4.0,4.0,0.0,4.0,4.0,4.0,4.0,4.0,4.0
8.0,0.0,4172.307692307694,4152.8205128205145,4176.923076923078,4262.051282051283,4185.128205128207,4151.282051282053,4172.8205128205145,4167.692307692309,4180.512820512822,4186.153846153848,4189.23076923077,4209.23076923077,4183.076923076925,4187.692307692309,645.0,2047.0,2048.0,0.0,0.0,4.0,4.0,4.0,4.0,0.0,4.0,4.0,4.0,4.0,0.0,4.0,4.0,4.0,4.0,4.0,4.0
9.0,0.0,4180.512820512822,4162.051282051283,4179.487179487181,4265.641025641027,4189.743589743592,4155.897435897437,4183.076923076925,4171.282051282053,4181.538461538463,4185.128205128207,4187.692307692309,4213.333333333335,4184.102564102565,4194.3589743589755,0.0,2047.0,2048.0,0.0,0.0,4.0,4.0,4.0,4.0,0.0,4.0,4.0,4.0,4.0,0.0,4.0,4.0,4.0,4.0,4.0,4.0
10.0,0.0,4183.076923076925,4172.307692307694,4177.94871794872,4262.564102564104,4190.769230769232,4154.871794871797,4173.846153846155,4173.846153846155,4183.589743589745,4183.589743589745,4184.615384615386,4209.743589743592,4180.512820512822,4199.487179487181,860.0,2047.0,2048.0,0.0,0.0,4.0,4.0,4.0,4.0,0.0,4.0,4.0,4.0,4.0,0.0,4.0,4.0,4.0,4.0,4.0,4.0
11.0,0.0,4193.846153846155,4191.794871794873,4189.23076923077,4266.153846153848,4188.20512820513,4154.871794871797,4166.666666666668,4181.538461538463,4187.179487179489,4184.615384615386,4191.794871794873,4218.46153846154,4183.076923076925,4204.615384615386,828.0,2047.0,2048.0,0.0,0.0,4.0,4.0,4.0,4.0,0.0,4.0,4.0,4.0,4.0,0.0,4.0,4.0,4.0,4.0,4.0,4.0
12.0,0.0,4207.179487179489,4210.769230769232,4201.538461538463,4272.8205128205145,4182.051282051283,4162.051282051283,4174.871794871797,4189.743589743592,4189.743589743592,4185.641025641027,4190.256410256412,4226.153846153848,4190.769230769232,4220.512820512822,852.0,2047.0,2048.0,0.0,0.0,4.0,4.0,4.0,4.0,0.0,4.0,4.0,4.0,4.0,0.0,4.0,4.0,4.0,4.0,4.0,4.0
13.0,0.0,4201.538461538463,4217.435897435899,4191.282051282053,4268.20512820513,4185.128205128207,4162.564102564104,4181.0256410256425,4186.666666666668,4187.179487179489,4186.153846153848,4179.487179487181,4226.666666666668,4182.051282051283,4223.589743589745,373.0,2047.0,2048.0,0.0,0.0,4.0,4.0,4.0,4.0,0.0,4.0,4.0,4.0,4.0,0.0,4.0,4.0,4.0,4.0,4.0,4.0
14.0,0.0,4189.23076923077,4217.435897435899,4172.8205128205145,4258.46153846154,4186.153846153848,4157.435897435899,4184.102564102565,4185.641025641027,4187.179487179489,4185.128205128207,4178.97435897436,4215.897435897437,4169.23076923077,4203.589743589745,860.0,2047.0,2048.0,0.0,0.0,4.0,4.0,4.0,4.0,0.0,4.0,4.0,4.0,4.0,0.0,4.0,4.0,4.0,4.0,4.0,4.0
15.0,0.0,4191.794871794873,4217.435897435899,4185.641025641027,4255.384615384617,4185.128205128207,4154.871794871797,4185.128205128207,4189.23076923077,4189.23076923077,4184.102564102565,4172.307692307694,4216.410256410258,4167.179487179489,4198.46153846154,828.0,2047.0,2048.0,0.0,0.0,4.0,4.0,4.0,4.0,0.0,4.0,4.0,4.0,4.0,0.0,4.0,4.0,4.0,4.0,4.0,4.0
16.0,0.0,4193.333333333335,4219.487179487181,4202.564102564104,4258.46153846154,4185.128205128207,4154.871794871797,4173.846153846155,4189.23076923077,4186.666666666668,4185.128205128207,4175.897435897437,4225.128205128207,4168.71794871795,4205.128205128207,0.0,2047.0,2048.0,0.0,0.0,4.0,4.0,4.0,4.0,0.0,4.0,4.0,4.0,4.0,0.0,4.0,4.0,4.0,4.0,4.0,4.0
17.0,0.0,4185.128205128207,4226.666666666668,4184.102564102565,4252.8205128205145,4182.051282051283,4152.8205128205145,4168.71794871795,4183.076923076925,4186.666666666668,4185.641025641027,4193.333333333335,4211.282051282053,4172.307692307694,4199.487179487181,0.0,2047.0,2048.0,0.0,0.0,4.0,4.0,4.0,4.0,0.0,4.0,4.0,4.0,4.0,0.0,4.0,4.0,4.0,4.0,4.0,4.0
18.0,0.0,4189.743589743592,4237.435897435899,4184.615384615386,4234.3589743589755,4188.20512820513,4150.769230769232,4177.94871794872,4173.333333333335,4188.20512820513,4185.128205128207,4191.282051282053,4215.384615384617,4173.846153846155,4197.94871794872,0.0,2047.0,2048.0,0.0,0.0,4.0,4.0,4.0,4.0,0.0,4.0,4.0,4.0,4.0,0.0,4.0,4.0,4.0,4.0,4.0,4.0
19.0,0.0,4197.94871794872,4228.71794871795,4198.97435897436,4227.179487179489,4191.282051282053,4152.8205128205145,4176.923076923078,4171.794871794873,4189.23076923077,4184.615384615386,4193.333333333335,4219.487179487181,4173.333333333335,4201.0256410256425,0.0,2047.0,2048.0,0.0,0.0,4.0,4.0,4.0,4.0,0.0,4.0,4.0,4.0,4.0,0.0,4.0,4.0,4.0,4.0,4.0,4.0
20.0,0.0,4187.179487179489,4210.256410256412,4182.051282051283,4243.076923076925,4186.153846153848,4149.23076923077,4166.666666666668,4173.846153846155,4189.23076923077,4185.128205128207,4203.589743589745,4204.615384615386,4177.435897435899,4193.333333333335,0.0,2047.0,2048.0,0.0,0.0,4.0,4.0,4.0,4.0,0.0,4.0,4.0,4.0,4.0,0.0,4.0,4.0,4.0,4.0,4.0,4.0
21.0,0.0,4177.94871794872,4211.282051282053,4174.871794871797,4247.179487179489,4185.128205128207,4139.487179487181,4165.128205128207,4167.692307692309,4182.051282051283,4186.153846153848,4188.20512820513,4208.71794871795,4176.410256410258,4188.71794871795,0.0,2047.0,2048.0,0.0,0.0,4.0,4.0,4.0,4.0,0.0,4.0,4.0,4.0,4.0,0.0,4.0,4.0,4.0,4.0,4.0,4.0
22.0,0.0,4172.8205128205145,4212.307692307694,4174.871794871797,4231.794871794873,4184.615384615386,4144.102564102565,4168.71794871795,4164.615384615386,4178.46153846154,4185.128205128207,4178.46153846154,4205.641025641027,4168.71794871795,4183.076923076925,0.0,2047.0,2048.0,0.0,0.0,4.0,4.0,4.0,4.0,0.0,4.0,4.0,4.0,4.0,0.0,4.0,4.0,4.0,4.0,4.0,4.0
23.0,0.0,4166.153846153848,4201.538461538463,4163.589743589745,4230.256410256412,4188.71794871795,4154.3589743589755,4168.20512820513,4169.23076923077,4184.102564102565,4184.102564102565,4185.641025641027,4200.000000000002,4170.256410256412,4176.410256410258,0.0,2047.0,2048.0,0.0,0.0,4.0,4.0,4.0,4.0,0.0,4.0,4.0,4.0,4.0,0.0,4.0,4.0,4.0,4.0,4.0,4.0
24.0,0.0,4170.256410256412,4195.897435897437,4166.153846153848,4234.871794871797,4187.692307692309,4147.179487179489,4167.692307692309,4167.692307692309,4183.589743589745,4184.615384615386,4168.71794871795,4208.71794871795,4172.307692307694,4190.769230769232,0.0,2047.0,2048.0,0.0,0.0,4.0,4.0,4.0,4.0,0.0,4.0,4.0,4.0,4.0,0.0,4.0,4.0,4.0,4.0,4.0,4.0
25.0,0.0,4175.897435897437,4196.923076923078,4174.3589743589755,4232.8205128205145,4181.0256410256425,4138.97435897436,4167.179487179489,4166.153846153848,4182.051282051283,4184.615384615386,4169.743589743592,4210.256410256412,4171.794871794873,4196.923076923078,0.0,2047.0,2048.0,0.0,0.0,4.0,4.0,4.0,4.0,0.0,4.0,4.0,4.0,4.0,0.0,4.0,4.0,4.0,4.0,4.0,4.0
26.0,0.0,4176.923076923078,4189.23076923077,4171.282051282053,4240.512820512822,4184.615384615386,4142.051282051283,4165.128205128207,4170.256410256412,4188.20512820513,4185.641025641027,4201.0256410256425,4209.23076923077,4185.128205128207,4182.564102564104,0.0,2047.0,2048.0,0.0,0.0,4.0,4.0,4.0,4.0,0.0,4.0,4.0,4.0,4.0,0.0,4.0,4.0,4.0,4.0,4.0,4.0
27.0,0.0,4174.3589743589755,4181.538461538463,4162.564102564104,4248.71794871795,4187.179487179489,4141.538461538463,4164.615384615386,4168.71794871795,4189.23076923077,4185.128205128207,4196.410256410258,4203.589743589745,4192.307692307694,4181.538461538463,0.0,2047.0,2048.0,0.0,0.0,4.0,4.0,4.0,4.0,0.0,4.0,4.0,4.0,4.0,0.0,4.0,4.0,4.0,4.0,4.0,4.0
28.0,0.0,4172.8205128205145,4183.076923076925,4173.846153846155,4244.615384615386,4190.769230769232,4145.128205128207,4173.846153846155,4165.641025641027,4183.076923076925,4184.615384615386,4180.512820512822,4207.692307692309,4180.000000000002,4188.20512820513,0.0,2047.0,2048.0,0.0,0.0,4.0,4.0,4.0,4.0,0.0,4.0,4.0,4.0,4.0,0.0,4.0,4.0,4.0,4.0,4.0,4.0
29.0,0.0,4174.3589743589755,4184.102564102565,4184.615384615386,4250.256410256412,4188.71794871795,4152.8205128205145,4182.564102564104,4169.23076923077,4183.589743589745,4185.128205128207,4194.3589743589755,4210.769230769232,4174.3589743589755,4183.589743589745,0.0,2047.0,2048.0,0.0,0.0,4.0,4.0,4.0,4.0,0.0,4.0,4.0,4.0,4.0,0.0,4.0,4.0,4.0,4.0,4.0,4.0
30.0,0.0,4178.97435897436,4184.615384615386,4175.384615384617,4261.538461538463,4180.000000000002,4151.282051282053,4176.410256410258,4174.871794871797,4185.128205128207,4186.666666666668,4203.589743589745,4208.20512820513,4184.102564102565,4183.076923076925,0.0,2047.0,2048.0,0.0,0.0,4.0,4.0,4.0,4.0,0.0,4.0,4.0,4.0,4.0,0.0,4.0,4.0,4.0,4.0,4.0,4.0
31.0,0.0,4186.153846153848,4188.20512820513,4180.512820512822,4262.564102564104,4182.564102564104,4152.307692307694,4174.871794871797,4181.538461538463,4184.615384615386,4186.153846153848,4198.97435897436,4218.97435897436,4192.307692307694,4197.435897435899,0.0,2047.0,2048.0,0.0,0.0,4.0,4.0,4.0,4.0,0.0,4.0,4.0,4.0,4.0,0.0,4.0,4.0,4.0,4.0,4.0,4.0
32.0,0.0,4186.153846153848,4195.897435897437,4187.692307692309,4260.512820512822,4186.666666666668,4154.871794871797,4182.051282051283,4184.102564102565,4189.743589743592,4184.615384615386,4204.102564102565,4215.897435897437,4198.46153846154,4202.564102564104,0.0,2047.0,2048.0,0.0,0.0,4.0,4.0,4.0,4.0,0.0,4.0,4.0,4.0,4.0,0.0,4.0,4.0,4.0,4.0,4.0,4.0
33.0,0.0,4190.256410256412,4200.512820512822,4188.71794871795,4256.410256410258,4187.179487179489,4146.153846153848,4177.94871794872,4176.410256410258,4198.46153846154,4185.128205128207,4210.256410256412,4212.307692307694,4202.564102564104,4204.615384615386,0.0,2047.0,2048.0,0.0,0.0,4.0,4.0,4.0,4.0,0.0,4.0,4.0,4.0,4.0,0.0,4.0,4.0,4.0,4.0,4.0,4.0
34.0,0.0,4190.769230769232,4198.97435897436,4184.615384615386,4250.256410256412,4185.128205128207,4139.487179487181,4169.23076923077,4168.71794871795,4197.94871794872,4184.102564102565,4205.128205128207,4217.435897435899,4197.435897435899,4205.128205128207,0.0,2047.0,2048.0,0.0,0.0,4.0,4.0,4.0,4.0,0.0,4.0,4.0,4.0,4.0,0.0,4.0,4.0,4.0,4.0,4.0,4.0
35.0,0.0,4182.051282051283,4203.589743589745,4173.333333333335,4253.846153846155,4183.076923076925,4145.128205128207,4169.23076923077,4168.71794871795,4190.256410256412,4183.589743589745,4199.487179487181,4211.282051282053,4191.794871794873,4198.46153846154,0.0,2047.0,2048.0,0.0,0.0,4.0,4.0,4.0,4.0,0.0,4.0,4.0,4.0,4.0,0.0,4.0,4.0,4.0,4.0,4.0,4.0
36.0,0.0,4185.641025641027,4217.435897435899,4181.538461538463,4262.564102564104,4188.20512820513,4151.794871794873,4171.282051282053,4169.23076923077,4187.179487179489,4184.615384615386,4203.076923076925,4215.384615384617,4191.282051282053,4200.512820512822,0.0,2047.0,2048.0,0.0,0.0,4.0,4.0,4.0,4.0,0.0,4.0,4.0,4.0,4.0,0.0,4.0,4.0,4.0,4.0,4.0,4.0
37.0,0.0,4186.666666666668,4225.128205128207,4183.589743589745,4256.923076923078,4185.641025641027,4147.179487179489,4173.846153846155,4168.71794871795,4187.179487179489,4184.615384615386,4204.615384615386,4215.897435897437,4189.743589743592,4202.564102564104,0.0,2047.0,2048.0,0.0,0.0,4.0,4.0,4.0,4.0,0.0,4.0,4.0,4.0,4.0,0.0,4.0,4.0,4.0,4.0,4.0,4.0
38.0,0.0,4176.923076923078,4228.20512820513,4172.307692307694,4245.641025641027,4183.589743589745,4143.076923076925,4176.410256410258,4172.8205128205145,4185.641025641027,4184.102564102565,4200.000000000002,4213.846153846155,4186.666666666668,4198.46153846154,0.0,2047.0,2048.0,0.0,0.0,4.0,4.0,4.0,4.0,0.0,4.0,4.0,4.0,4.0,0.0,4.0,4.0,4.0,4.0,4.0,4.0
39.0,0.0,4183.076923076925,4238.97435897436,4180.000000000002,4252.8205128205145,4187.692307692309,4149.743589743592,4178.46153846154,4180.512820512822,4191.794871794873,4185.641025641027,4207.692307692309,4221.538461538463,4194.3589743589755,4206.153846153848,0.0,2047.0,2048.0,0.0,0.0,4.0,4.0,4.0,4.0,0.0,4.0,4.0,4.0,4.0,0.0,4.0,4.0,4.0,4.0,4.0,4.0
40.0,0.0,4201.538461538463,4256.923076923078,4198.46153846154,4261.0256410256425,4189.23076923077,4157.435897435899,4185.128205128207,4186.153846153848,4202.051282051283,4186.666666666668,4216.410256410258,4221.538461538463,4208.71794871795,4217.94871794872,0.0,2047.0,2048.0,0.0,0.0,4.0,4.0,4.0,4.0,0.0,4.0,4.0,4.0,4.0,0.0,4.0,4.0,4.0,4.0,4.0,4.0
41.0,0.0,4211.282051282053,4277.435897435899,4200.000000000002,4256.410256410258,4188.20512820513,4155.897435897437,4185.128205128207,4180.000000000002,4200.000000000002,4185.128205128207,4199.487179487181,4228.20512820513,4206.153846153848,4222.051282051283,0.0,2047.0,2048.0,0.0,0.0,4.0,4.0,4.0,4.0,0.0,4.0,4.0,4.0,4.0,0.0,4.0,4.0,4.0,4.0,4.0,4.0
42.0,0.0,4211.282051282053,4289.23076923077,4185.128205128207,4254.3589743589755,4182.051282051283,4153.846153846155,4176.410256410258,4173.333333333335,4189.743589743592,4184.615384615386,4194.3589743589755,4226.666666666668,4198.97435897436,4222.564102564104,0.0,2047.0,2048.0,0.0,0.0,4.0,4.0,4.0,4.0,0.0,4.0,4.0,4.0,4.0,0.0,4.0,4.0,4.0,4.0,4.0,4.0
43.0,0.0,4224.102564102565,4298.46153846154,4198.97435897436,4260.000000000002,4185.128205128207,4153.333333333335,4173.333333333335,4175.897435897437,4184.615384615386,4186.666666666668,4216.410256410258,4217.435897435899,4212.8205128205145,4227.179487179489,0.0,2047.0,2048.0,0.0,0.0,4.0,4.0,4.0,4.0,0.0,4.0,4.0,4.0,4.0,0.0,4.0,4.0,4.0,4.0,4.0,4.0
44.0,0.0,4252.8205128205145,4320.000000000002,4222.051282051283,4268.20512820513,4192.8205128205145,4147.179487179489,4173.333333333335,4174.3589743589755,4185.128205128207,4186.153846153848,4204.102564102565,4220.000000000002,4220.512820512822,4237.94871794872,0.0,2047.0,2048.0,0.0,0.0,4.0,4.0,4.0,4.0,0.0,4.0,4.0,4.0,4.0,0.0,4.0,4.0,4.0,4.0,4.0,4.0
45.0,0.0,4274.871794871797,4339.487179487181,4211.794871794873,4264.102564102565,4184.615384615386,4140.512820512822,4167.179487179489,4165.641025641027,4184.102564102565,4184.102564102565,4174.871794871797,4225.128205128207,4211.282051282053,4255.897435897437,0.0,2047.0,2048.0,0.0,0.0,4.0,4.0,4.0,4.0,0.0,4.0,4.0,4.0,4.0,0.0,4.0,4.0,4.0,4.0,4.0,4.0
46.0,0.0,4290.256410256412,4348.20512820513,4222.051282051283,4246.666666666668,4181.538461538463,4143.589743589745,4163.589743589745,4169.743589743592,4185.128205128207,4185.128205128207,4196.410256410258,4232.8205128205145,4222.564102564104,4266.666666666668,0.0,2047.0,2048.0,0.0,0.0,4.0,4.0,4.0,4.0,0.0,4.0,4.0,4.0,4.0,0.0,4.0,4.0,4.0,4.0,4.0,4.0
47.0,0.0,4304.615384615386,4364.102564102565,4240.512820512822,4256.410256410258,4187.692307692309,4151.794871794873,4175.384615384617,4183.076923076925,4194.3589743589755,4185.641025641027,4228.71794871795,4222.051282051283,4242.564102564104,4265.641025641027,0.0,2047.0,2048.0,0.0,0.0,4.0,4.0,4.0,4.0,0.0,4.0,4.0,4.0,4.0,0.0,4.0,4.0,4.0,4.0,4.0,4.0
48.0,0.0,4315.897435897437,4377.435897435899,4230.256410256412,4288.71794871795,4190.256410256412,4155.897435897437,4185.641025641027,4181.0256410256425,4198.97435897436,4184.615384615386,4218.46153846154,4218.97435897436,4245.128205128207,4273.846153846155,0.0,2047.0,2048.0,0.0,0.0,4.0,4.0,4.0,4.0,0.0,4.0,4.0,4.0,4.0,0.0,4.0,4.0,4.0,4.0,4.0,4.0
49.0,0.0,4325.128205128207,4375.384615384617,4234.871794871797,4291.794871794873,4191.282051282053,4154.871794871797,4177.435897435899,4169.743589743592,4189.23076923077,4185.128205128207,4203.589743589745,4238.46153846154,4248.71794871795,4289.743589743592,0.0,2047.0,2048.0,0.0,0.0,4.0,4.0,4.0,4.0,0.0,4.0,4.0,4.0,4.0,0.0,4.0,4.0,4.0,4.0,4.0,4.0
50.0,0.0,4320.512820512822,4368.20512820513,4240.512820512822,4267.179487179489,4186.153846153848,4147.179487179489,4164.102564102565,4166.666666666668,4180.000000000002,4185.128205128207,4207.692307692309,4233.333333333335,4245.128205128207,4285.641025641027,0.0,2047.0,2048.0,0.0,0.0,4.0,4.0,4.0,4.0,0.0,4.0,4.0,4.0,4.0,0.0,4.0,4.0,4.0,4.0,4.0,4.0
51.0,0.0,4304.102564102565,4354.871794871797,4217.94871794872,4261.0256410256425,4183.589743589745,4141.0256410256425,4164.615384615386,4169.23076923077,4180.512820512822,4185.128205128207,4215.384615384617,4220.000000000002,4228.20512820513,4266.666666666668,0.0,2047.0,2048.0,0.0,0.0,4.0,4.0,4.0,4.0,0.0,4.0,4.0,4.0,4.0,0.0,4.0,4.0,4.0,4.0,4.0,4.0
52.0,0.0,4289.23076923077,4337.94871794872,4202.564102564104,4272.8205128205145,4186.666666666668,4144.615384615386,4168.20512820513,4169.23076923077,4184.615384615386,4185.641025641027,4220.000000000002,4212.307692307694,4228.20512820513,4251.282051282053,0.0,2047.0,2048.0,0.0,0.0,4.0,4.0,4.0,4.0,0.0,4.0,4.0,4.0,4.0,0.0,4.0,4.0,4.0,4.0,4.0,4.0
53.0,0.0,4284.102564102565,4327.692307692309,4211.794871794873,4275.897435897437,4190.769230769232,4148.71794871795,4166.666666666668,4168.20512820513,4185.641025641027,4185.641025641027,4218.46153846154,4210.769230769232,4238.97435897436,4250.256410256412,0.0,2047.0,2048.0,0.0,0.0,4.0,4.0,4.0,4.0,0.0,4.0,4.0,4.0,4.0,0.0,4.0,4.0,4.0,4.0,4.0,4.0
54.0,0.0,4274.871794871797,4316.410256410258,4209.23076923077,4271.282051282053,4186.666666666668,4147.692307692309,4172.8205128205145,4172.307692307694,4188.20512820513,4183.589743589745,4213.333333333335,4219.487179487181,4234.871794871797,4249.23076923077,0.0,2047.0,2048.0,0.0,0.0,4.0,4.0,4.0,4.0,0.0,4.0,4.0,4.0,4.0,0.0,4.0,4.0,4.0,4.0,4.0,4.0
55.0,0.0,4255.897435897437,4304.615384615386,4190.769230769232,4266.153846153848,4178.97435897436,4150.256410256412,4176.410256410258,4176.410256410258,4190.256410256412,4183.589743589745,4214.871794871797,4215.897435897437,4227.692307692309,4237.94871794872,0.0,2047.0,2048.0,0.0,0.0,4.0,4.0,4.0,4.0,0.0,4.0,4.0,4.0,4.0,0.0,4.0,4.0,4.0,4.0,4.0,4.0
56.0,0.0,4254.871794871797,4304.615384615386,4203.589743589745,4274.871794871797,4188.71794871795,4153.333333333335,4171.794871794873,4170.769230769232,4187.692307692309,4185.128205128207,4224.615384615386,4218.97435897436,4230.769230769232,4240.000000000002,0.0,2047.0,2048.0,0.0,0.0,4.0,4.0,4.0,4.0,0.0,4.0,4.0,4.0,4.0,0.0,4.0,4.0,4.0,4.0,4.0,4.0
57.0,0.0,4263.589743589745,4302.051282051283,4221.0256410256425,4286.153846153848,4191.282051282053,4152.307692307694,4167.179487179489,4167.692307692309,4188.71794871795,4186.153846153848,4234.3589743589755,4224.102564102565,4241.538461538463,4254.871794871797,0.0,2047.0,2048.0,0.0,0.0,4.0,4.0,4.0,4.0,0.0,4.0,4.0,4.0,4.0,0.0,4.0,4.0,4.0,4.0,4.0,4.0
58.0,0.0,4250.769230769232,4295.384615384617,4207.179487179489,4283.076923076925,4182.051282051283,4151.794871794873,4168.71794871795,4180.512820512822,4196.410256410258,4185.641025641027,4235.897435897437,4221.0256410256425,4238.46153846154,4244.615384615386,0.0,2047.0,2048.0,0.0,0.0,4.0,4.0,4.0,4.0,0.0,4.0,4.0,4.0,4.0,0.0,4.0,4.0,4.0,4.0,4.0,4.0
59.0,0.0,4228.20512820513,4297.435897435899,4195.384615384617,4271.794871794873,4184.615384615386,4152.307692307694,4175.384615384617,4190.769230769232,4202.564102564104,4185.128205128207,4233.846153846155,4225.128205128207,4223.076923076925,4221.0256410256425,0.0,2047.0,2048.0,0.0,0.0,4.0,4.0,4.0,4.0,0.0,4.0,4.0,4.0,4.0,0.0,4.0,4.0,4.0,4.0,4.0,4.0
60.0,0.0,4208.71794871795,4284.615384615386,4188.20512820513,4257.435897435899,4186.153846153848,4150.769230769232,4181.538461538463,4184.615384615386,4199.487179487181,4185.128205128207,4231.794871794873,4218.97435897436,4215.897435897437,4214.3589743589755,0.0,2047.0,2048.0,0.0,0.0,4.0,4.0,4.0,4.0,0.0,4.0,4.0,4.0,4.0,0.0,4.0,4.0,4.0,4.0,4.0,4.0
61.0,0.0,4193.333333333335,4266.666666666668,4184.102564102565,4251.282051282053,4187.692307692309,4152.307692307694,4182.051282051283,4174.871794871797,4192.307692307694,4184.102564102565,4223.589743589745,4215.897435897437,4208.20512820513,4212.307692307694,0.0,2047.0,2048.0,0.0,0.0,4.0,4.0,4.0,4.0,0.0,4.0,4.0,4.0,4.0,0.0,4.0,4.0,4.0,4.0,4.0,4.0
62.0,0.0,4181.538461538463,4266.153846153848,4178.97435897436,4248.20512820513,4189.743589743592,4160.000000000002,4182.051282051283,4176.410256410258,4193.333333333335,4185.128205128207,4212.307692307694,4216.410256410258,4197.94871794872,4198.46153846154,0.0,2047.0,2048.0,0.0,0.0,4.0,4.0,4.0,4.0,0.0,4.0,4.0,4.0,4.0,0.0,4.0,4.0,4.0,4.0,4.0,4.0
63.0,0.0,4184.615384615386,4275.384615384617,4172.8205128205145,4242.564102564104,4185.641025641027,4170.769230769232,4189.743589743592,4185.641025641027,4200.000000000002,4187.179487179489,4210.769230769232,4213.333333333335,4198.46153846154,4191.794871794873,0.0,2047.0,2048.0,0.0,0.0,4.0,4.0,4.0,4.0,0.0,4.0,4.0,4.0,4.0,0.0,4.0,4.0,4.0,4.0,4.0,4.0
64.0,0.0,4192.307692307694,4285.641025641027,4179.487179487181,4242.051282051283,4186.666666666668,4168.71794871795,4189.743589743592,4189.23076923077,4202.564102564104,4185.128205128207,4220.512820512822,4225.128205128207,4206.153846153848,4202.564102564104,690.0,2047.0,2048.0,0.0,0.0,4.0,4.0,4.0,4.0,0.0,4.0,4.0,4.0,4.0,0.0,4.0,4.0,4.0,4.0,4.0,4.0
65.0,0.0,4177.94871794872,4289.743589743592,4173.846153846155,4242.051282051283,4185.641025641027,4159.487179487181,4181.538461538463,4187.692307692309,4198.97435897436,4182.564102564104,4215.897435897437,4225.128205128207,4202.051282051283,4207.692307692309,830.0,2047.0,2048.0,0.0,0.0,4.0,4.0,4.0,4.0,0.0,4.0,4.0,4.0,4.0,0.0,4.0,4.0,4.0,4.0,4.0,4.0
66.0,0.0,4169.743589743592,4292.8205128205145,4171.794871794873,4245.641025641027,4186.153846153848,4164.102564102565,4182.051282051283,4195.384615384617,4201.538461538463,4184.615384615386,4203.589743589745,4219.487179487181,4188.20512820513,4195.897435897437,806.0,2047.0,2048.0,0.0,0.0,4.0,4.0,4.0,4.0,0.0,4.0,4.0,4.0,4.0,0.0,4.0,4.0,4.0,4.0,4.0,4.0
67.0,0.0,4179.487179487181,4305.641025641027,4181.538461538463,4248.20512820513,4190.256410256412,4170.769230769232,4184.615384615386,4201.0256410256425,4203.076923076925,4186.666666666668,4205.641025641027,4220.512820512822,4181.538461538463,4191.282051282053,805.0,2047.0,2048.0,0.0,0.0,4.0,4.0,4.0,4.0,0.0,4.0,4.0,4.0,4.0,0.0,4.0,4.0,4.0,4.0,4.0,4.0
68.0,0.0,4172.307692307694,4310.256410256412,4178.97435897436,4229.743589743592,4190.256410256412,4167.179487179489,4185.641025641027,4186.666666666668,4191.282051282053,4185.128205128207,4192.307692307694,4217.435897435899,4182.564102564104,4193.333333333335,0.0,2047.0,2048.0,0.0,0.0,4.0,4.0,4.0,4.0,0.0,4.0,4.0,4.0,4.0,0.0,4.0,4.0,4.0,4.0,4.0,4.0
69.0,0.0,4159.487179487181,4298.97435897436,4173.846153846155,4218.97435897436,4188.20512820513,4166.666666666668,4183.076923076925,4168.71794871795,4183.589743589745,4185.641025641027,4174.3589743589755,4221.0256410256425,4173.333333333335,4189.23076923077,785.0,2047.0,2048.0,0.0,0.0,4.0,4.0,4.0,4.0,0.0,4.0,4.0,4.0,4.0,0.0,4.0,4.0,4.0,4.0,4.0,4.0
70.0,0.0,4169.743589743592,4298.97435897436,4174.871794871797,4231.282051282053,4183.076923076925,4168.71794871795,4173.333333333335,4167.692307692309,4190.256410256412,4185.641025641027,4177.94871794872,4223.589743589745,4164.102564102565,4197.435897435899,793.0,2047.0,2048.0,0.0,0.0,4.0,4.0,4.0,4.0,0.0,4.0,4.0,4.0,4.0,0.0,4.0,4.0,4.0,4.0,4.0,4.0
71.0,0.0,4177.435897435899,4301.0256410256425,4175.897435897437,4222.051282051283,4186.153846153848,4166.153846153848,4167.692307692309,4173.846153846155,4196.923076923078,4184.102564102565,4185.641025641027,4228.20512820513,4170.769230769232,4204.102564102565,809.0,2047.0,2048.0,0.0,0.0,4.0,4.0,4.0,4.0,0.0,4.0,4.0,4.0,4.0,0.0,4.0,4.0,4.0,4.0,4.0,4.0
72.0,0.0,4166.153846153848,4297.435897435899,4175.384615384617,4211.794871794873,4191.794871794873,4170.769230769232,4182.051282051283,4180.512820512822,4201.0256410256425,4184.615384615386,4198.46153846154,4228.20512820513,4184.102564102565,4187.692307692309,645.0,2047.0,2048.0,0.0,0.0,4.0,4.0,4.0,4.0,0.0,4.0,4.0,4.0,4.0,0.0,4.0,4.0,4.0,4.0,4.0,4.0
73.0,0.0,4157.435897435899,4306.153846153848,4170.256410256412,4245.641025641027,4186.666666666668,4180.000000000002,4200.000000000002,4191.282051282053,4207.692307692309,4185.128205128207,4213.333333333335,4213.846153846155,4190.769230769232,4176.923076923078,0.0,2047.0,2048.0,0.0,0.0,4.0,4.0,4.0,4.0,0.0,4.0,4.0,4.0,4.0,0.0,4.0,4.0,4.0,4.0,4.0,4.0
74.0,0.0,4161.0256410256425,4306.153846153848,4166.153846153848,4266.666666666668,4187.692307692309,4177.435897435899,4194.871794871797,4185.128205128207,4205.641025641027,4185.641025641027,4200.512820512822,4212.8205128205145,4183.076923076925,4183.589743589745,861.0,2047.0,2048.0,0.0,0.0,4.0,4.0,4.0,4.0,0.0,4.0,4.0,4.0,4.0,0.0,4.0,4.0,4.0,4.0,4.0,4.0
75.0,0.0,4158.46153846154,4280.000000000002,4162.564102564104,4243.589743589745,4192.307692307694,4169.23076923077,4183.076923076925,4172.8205128205145,4198.97435897436,4185.641025641027,4189.23076923077,4208.71794871795,4171.794871794873,4181.0256410256425,828.0,2047.0,2048.0,0.0,0.0,4.0,4.0,4.0,4.0,0.0,4.0,4.0,4.0,4.0,0.0,4.0,4.0,4.0,4.0,4.0,4.0
76.0,0.0,4149.23076923077,4265.128205128207,4164.615384615386,4232.8205128205145,4191.282051282053,4169.23076923077,4182.051282051283,4171.794871794873,4197.94871794872,4185.641025641027,4200.512820512822,4206.153846153848,4172.307692307694,4172.8205128205145,852.0,2047.0,2048.0,0.0,0.0,4.0,4.0,4.0,4.0,0.0,4.0,4.0,4.0,4.0,0.0,4.0,4.0,4.0,4.0,4.0,4.0
77.0,0.0,4151.794871794873,4273.846153846155,4171.794871794873,4237.94871794872,4186.153846153848,4173.333333333335,4188.71794871795,4174.871794871797,4197.94871794872,4185.641025641027,4204.102564102565,4217.435897435899,4178.97435897436,4181.0256410256425,373.0,2047.0,2048.0,0.0,0.0,4.0,4.0,4.0,4.0,0.0,4.0,4.0,4.0,4.0,0.0,4.0,4.0,4.0,4.0,4.0,4.0
78.0,0.0,4161.0256410256425,4269.743589743592,4170.769230769232,4236.410256410258,4184.102564102565,4170.256410256412,4188.71794871795,4176.923076923078,4196.410256410258,4185.128205128207,4202.564102564104,4214.871794871797,4175.897435897437,4181.0256410256425,861.0,2047.0,2048.0,0.0,0.0,4.0,4.0,4.0,4.0,0.0,4.0,4.0,4.0,4.0,0.0,4.0,4.0,4.0,4.0,4.0,4.0
79.0,0.0,4164.615384615386,4260.000000000002,4180.512820512822,4244.102564102565,4193.846153846155,4170.256410256412,4184.615384615386,4174.3589743589755,4195.897435897437,4185.128205128207,4209.743589743592,4214.871794871797,4171.282051282053,4180.512820512822,828.0,2047.0,2048.0,0.0,0.0,4.0,4.0,4.0,4.0,0.0,4.0,4.0,4.0,4.0,0.0,4.0,4.0,4.0,4.0,4.0,4.0
80.0,0.0,4159.487179487181,4258.46153846154,4181.0256410256425,4252.307692307694,4191.282051282053,4177.435897435899,4195.897435897437,4179.487179487181,4199.487179487181,4185.641025641027,4213.333333333335,4212.8205128205145,4177.435897435899,4188.20512820513,852.0,2047.0,2048.0,0.0,0.0,4.0,4.0,4.0,4.0,0.0,4.0,4.0,4.0,4.0,0.0,4.0,4.0,4.0,4.0,4.0,4.0
81.0,0.0,4158.46153846154,4263.076923076925,4168.71794871795,4251.794871794873,4182.564102564104,4177.435897435899,4202.051282051283,4188.71794871795,4202.564102564104,4186.153846153848,4217.435897435899,4211.282051282053,4186.153846153848,4190.256410256412,373.0,2047.0,2048.0,0.0,0.0,4.0,4.0,4.0,4.0,0.0,4.0,4.0,4.0,4.0,0.0,4.0,4.0,4.0,4.0,4.0,4.0
82.0,0.0,4168.20512820513,4265.128205128207,4177.435897435899,4251.794871794873,4187.692307692309,4172.307692307694,4186.666666666668,4183.076923076925,4201.538461538463,4185.641025641027,4223.076923076925,4223.076923076925,4190.769230769232,4196.923076923078,861.0,2047.0,2048.0,0.0,0.0,4.0,4.0,4.0,4.0,0.0,4.0,4.0,4.0,4.0,0.0,4.0,4.0,4.0,4.0,4.0,4.0
83.0,0.0,4164.102564102565,4259.487179487181,4183.076923076925,4249.743589743592,4189.743589743592,4172.307692307694,4186.666666666668,4176.410256410258,4198.97435897436,4184.102564102565,4220.000000000002,4218.97435897436,4191.282051282053,4199.487179487181,828.0,2047.0,2048.0,0.0,0.0,4.0,4.0,4.0,4.0,0.0,4.0,4.0,4.0,4.0,0.0,4.0,4.0,4.0,4.0,4.0,4.0
84.0,0.0,4160.512820512822,4257.94871794872,4179.487179487181,4246.666666666668,4187.692307692309,4173.333333333335,4202.051282051283,4184.615384615386,4202.564102564104,4185.641025641027,4215.384615384617,4218.97435897436,4188.20512820513,4195.384615384617,852.0,2047.0,2048.0,0.0,0.0,4.0,4.0,4.0,4.0,0.0,4.0,4.0,4.0,4.0,0.0,4.0,4.0,4.0,4.0,4.0,4.0
85.0,0.0,4169.743589743592,4260.000000000002,4176.923076923078,4249.743589743592,4184.615384615386,4169.23076923077,4191.282051282053,4184.102564102565,4203.076923076925,4185.641025641027,4215.897435897437,4221.538461538463,4187.179487179489,4191.794871794873,373.0,2047.0,2048.0,0.0,0.0,4.0,4.0,4.0,4.0,0.0,4.0,4.0,4.0,4.0,0.0,4.0,4.0,4.0,4.0,4.0,4.0
86.0,0.0,4173.333333333335,4264.102564102565,4181.538461538463,4252.8205128205145,4189.23076923077,4167.692307692309,4174.871794871797,4173.333333333335,4199.487179487181,4184.615384615386,4218.97435897436,4221.538461538463,4194.3589743589755,4198.46153846154,861.0,2047.0,2048.0,0.0,0.0,4.0,4.0,4.0,4.0,0.0,4.0,4.0,4.0,4.0,0.0,4.0,4.0,4.0,4.0,4.0,4.0
87.0,0.0,4172.8205128205145,4270.256410256412,4191.794871794873,4250.256410256412,4194.3589743589755,4169.23076923077,4185.128205128207,4184.102564102565,4202.564102564104,4185.641025641027,4217.435897435899,4233.846153846155,4204.615384615386,4210.769230769232,828.0,2047.0,2048.0,0.0,0.0,4.0,4.0,4.0,4.0,0.0,4.0,4.0,4.0,4.0,0.0,4.0,4.0,4.0,4.0,4.0,4.0
88.0,0.0,4169.743589743592,4271.794871794873,4183.076923076925,4241.0256410256425,4187.692307692309,4168.71794871795,4192.8205128205145,4189.23076923077,4203.076923076925,4186.153846153848,4216.410256410258,4228.71794871795,4200.512820512822,4198.97435897436,852.0,2047.0,2048.0,0.0,0.0,4.0,4.0,4.0,4.0,0.0,4.0,4.0,4.0,4.0,0.0,4.0,4.0,4.0,4.0,4.0,4.0
89.0,0.0,4165.128205128207,4272.307692307694,4172.8205128205145,4235.384615384617,4187.692307692309,4168.20512820513,4180.000000000002,4170.769230769232,4191.794871794873,4184.102564102565,4202.051282051283,4220.512820512822,4183.076923076925,4187.179487179489,373.0,2047.0,2048.0,0.0,0.0,4.0,4.0,4.0,4.0,0.0,4.0,4.0,4.0,4.0,0.0,4.0,4.0,4.0,4.0,4.0,4.0
90.0,0.0,4162.564102564104,4273.333333333335,4174.871794871797,4235.384615384617,4191.282051282053,4165.641025641027,4177.435897435899,4164.615384615386,4182.051282051283,4184.102564102565,4172.8205128205145,4221.538461538463,4170.769230769232,4190.256410256412,861.0,2047.0,2048.0,0.0,0.0,4.0,4.0,4.0,4.0,0.0,4.0,4.0,4.0,4.0,0.0,4.0,4.0,4.0,4.0,4.0,4.0
91.0,0.0,4161.538461538463,4270.769230769232,4180.512820512822,4224.615384615386,4190.769230769232,4165.641025641027,4189.23076923077,4169.743589743592,4183.076923076925,4185.641025641027,4166.153846153848,4221.538461538463,4169.743589743592,4187.692307692309,828.0,2047.0,2048.0,0.0,0.0,4.0,4.0,4.0,4.0,0.0,4.0,4.0,4.0,4.0,0.0,4.0,4.0,4.0,4.0,4.0,4.0
92.0,0.0,4153.333333333335,4266.666666666668,4174.871794871797,4220.000000000002,4189.23076923077,4169.743589743592,4183.589743589745,4169.743589743592,4186.666666666668,4186.153846153848,4185.128205128207,4216.923076923078,4166.153846153848,4178.97435897436,852.0,2047.0,2048.0,0.0,0.0,4.0,4.0,4.0,4.0,0.0,4.0,4.0,4.0,4.0,0.0,4.0,4.0,4.0,4.0,4.0,4.0
93.0,0.0,4147.692307692309,4274.3589743589755,4158.97435897436,4230.769230769232,4183.589743589745,4171.282051282053,4166.153846153848,4172.8205128205145,4189.743589743592,4185.128205128207,4198.46153846154,4198.46153846154,4174.3589743589755,4176.410256410258,373.0,2047.0,2048.0,0.0,0.0,4.0,4.0,4.0,4.0,0.0,4.0,4.0,4.0,4.0,0.0,4.0,4.0,4.0,4.0,4.0,4.0
94.0,0.0,4158.97435897436,4286.153846153848,4167.179487179489,4223.589743589745,4186.666666666668,4170.256410256412,4172.307692307694,4181.538461538463,4195.384615384617,4185.128205128207,4189.743589743592,4207.179487179489,4186.666666666668,4186.666666666668,861.0,2047.0,2048.0,0.0,0.0,4.0,4.0,4.0,4.0,0.0,4.0,4.0,4.0,4.0,0.0,4.0,4.0,4.0,4.0,4.0,4.0
95.0,0.0,4159.487179487181,4274.3589743589755,4177.435897435899,4208.20512820513,4189.23076923077,4168.20512820513,4192.8205128205145,4188.71794871795,4198.97435897436,4184.615384615386,4184.615384615386,4220.000000000002,4176.923076923078,4192.307692307694,828.0,2047.0,2048.0,0.0,0.0,4.0,4.0,4.0,4.0,0.0,4.0,4.0,4.0,4.0,0.0,4.0,4.0,4.0,4.0,4.0,4.0
96.0,0.0,4147.692307692309,4262.564102564104,4163.076923076925,4227.179487179489,4184.102564102565,4167.179487179489,4188.20512820513,4184.615384615386,4200.512820512822,4184.615384615386,4197.435897435899,4204.615384615386,4167.179487179489,4182.564102564104,852.0,2047.0,2048.0,0.0,0.0,4.0,4.0,4.0,4.0,0.0,4.0,4.0,4.0,4.0,0.0,4.0,4.0,4.0,4.0,4.0,4.0
97.0,0.0,4157.435897435899,4273.333333333335,4165.641025641027,4240.512820512822,4188.71794871795,4169.743589743592,4176.410256410258,4176.923076923078,4201.538461538463,4185.128205128207,4205.641025641027,4201.0256410256425,4184.615384615386,4175.384615384617,373.0,2047.0,2048.0,0.0,0.0,4.0,4.0,4.0,4.0,0.0,4.0,4.0,4.0,4.0,0.0,4.0,4.0,4.0,4.0,4.0,4.0
98.0,0.0,4168.20512820513,4276.410256410258,4177.94871794872,4223.076923076925,4191.794871794873,4170.769230769232,4184.102564102565,4175.384615384617,4198.46153846154,4184.615384615386,4201.0256410256425,4204.615384615386,4197.435897435899,4184.102564102565,861.0,2047.0,2048.0,0.0,0.0,4.0,4.0,4.0,4.0,0.0,4.0,4.0,4.0,4.0,0.0,4.0,4.0,4.0,4.0,4.0,4.0
99.0,0.0,4161.0256410256425,4264.615384615386,4175.897435897437,4224.615384615386,4189.23076923077,4165.128205128207,4184.615384615386,4171.794871794873,4194.871794871797,4185.128205128207,4201.0256410256425,4209.23076923077,4187.179487179489,4189.743589743592,828.0,2047.0,2048.0,0.0,0.0,4.0,4.0,4.0,4.0,0.0,4.0,4.0,4.0,4.0,0.0,4.0,4.0,4.0,4.0,4.0,4.0
100.0,0.0,4154.871794871797,4254.871794871797,4162.051282051283,4239.487179487181,4184.615384615386,4162.564102564104,4169.743589743592,4167.692307692309,4198.97435897436,4185.128205128207,4212.8205128205145,4209.23076923077,4182.051282051283,4178.97435897436,852.0,2047.0,2048.0,0.0,0.0,4.0,4.0,4.0,4.0,0.0,4.0,4.0,4.0,4.0,0.0,4.0,4.0,4.0,4.0,4.0,4.0
101.0,0.0,4161.538461538463,4251.794871794873,4157.435897435899,4227.692307692309,4183.589743589745,4167.692307692309,4171.282051282053,4175.897435897437,4203.589743589745,4185.128205128207,4214.3589743589755,4205.128205128207,4187.692307692309,4180.512820512822,373.0,2047.0,2048.0,0.0,0.0,4.0,4.0,4.0,4.0,0.0,4.0,4.0,4.0,4.0,0.0,4.0,4.0,4.0,4.0,4.0,4.0
102.0,0.0,4168.20512820513,4245.128205128207,4174.871794871797,4218.46153846154,4192.307692307694,4168.71794871795,4185.641025641027,4182.051282051283,4200.000000000002,4185.641025641027,4211.794871794873,4209.23076923077,4186.666666666668,4189.23076923077,861.0,2047.0,2048.0,0.0,0.0,4.0,4.0,4.0,4.0,0.0,4.0,4.0,4.0,4.0,0.0,4.0,4.0,4.0,4.0,4.0,4.0
103.0,0.0,4165.641025641027,4242.564102564104,4181.0256410256425,4229.23076923077,4191.794871794873,4164.615384615386,4186.153846153848,4175.384615384617,4196.410256410258,4185.128205128207,4212.8205128205145,4206.666666666668,4185.641025641027,4191.282051282053,828.0,2047.0,2048.0,0.0,0.0,4.0,4.0,4.0,4.0,0.0,4.0,4.0,4.0,4.0,0.0,4.0,4.0,4.0,4.0,4.0,4.0
104.0,0.0,4174.3589743589755,4247.179487179489,4177.94871794872,4239.487179487181,4187.692307692309,4168.71794871795,4180.000000000002,4178.97435897436,4201.538461538463,4185.128205128207,4218.46153846154,4212.307692307694,4193.846153846155,4199.487179487181,852.0,2047.0,2048.0,0.0,0.0,4.0,4.0,4.0,4.0,0.0,4.0,4.0,4.0,4.0,0.0,4.0,4.0,4.0,4.0,4.0,4.0
105.0,0.0,4181.538461538463,4247.692307692309,4178.46153846154,4240.512820512822,4187.179487179489,4167.692307692309,4175.384615384617,4178.97435897436,4199.487179487181,4185.128205128207,4223.589743589745,4217.435897435899,4203.076923076925,4203.589743589745,373.0,2047.0,2048.0,0.0,0.0,4.0,4.0,4.0,4.0,0.0,4.0,4.0,4.0,4.0,0.0,4.0,4.0,4.0,4.0,4.0,4.0
106.0,0.0,4170.256410256412,4243.076923076925,4176.410256410258,4237.94871794872,4186.153846153848,4155.384615384617,4170.256410256412,4165.641025641027,4188.71794871795,4185.128205128207,4217.94871794872,4209.743589743592,4201.538461538463,4195.897435897437,861.0,2047.0,2048.0,0.0,0.0,4.0,4.0,4.0,4.0,0.0,4.0,4.0,4.0,4.0,0.0,4.0,4.0,4.0,4.0,4.0,4.0
107.0,0.0,4166.666666666668,4240.512820512822,4184.615384615386,4236.410256410258,4191.282051282053,4159.487179487181,4178.97435897436,4174.871794871797,4195.897435897437,4185.128205128207,4216.410256410258,4214.3589743589755,4195.897435897437,4190.769230769232,828.0,2047.0,2048.0,0.0,0.0,4.0,4.0,4.0,4.0,0.0,4.0,4.0,4.0,4.0,0.0,4.0,4.0,4.0,4.0,4.0,4.0
108.0,0.0,4173.846153846155,4245.128205128207,4181.538461538463,4235.384615384617,4191.282051282053,4171.794871794873,4186.153846153848,4193.333333333335,4208.20512820513,4185.128205128207,4220.512820512822,4207.692307692309,4192.8205128205145,4187.179487179489,852.0,2047.0,2048.0,0.0,0.0,4.0,4.0,4.0,4.0,0.0,4.0,4.0,4.0,4.0,0.0,4.0,4.0,4.0,4.0,4.0,4.0
109.0,0.0,4178.46153846154,4249.743589743592,4176.410256410258,4233.846153846155,4189.23076923077,4164.102564102565,4175.897435897437,4181.538461538463,4199.487179487181,4184.615384615386,4215.384615384617,4203.589743589745,4191.282051282053,4188.20512820513,373.0,2047.0,2048.0,0.0,0.0,4.0,4.0,4.0,4.0,0.0,4.0,4.0,4.0,4.0,0.0,4.0,4.0,4.0,4.0,4.0,4.0
110.0,0.0,4176.923076923078,4245.641025641027,4181.0256410256425,4231.794871794873,4186.666666666668,4157.435897435899,4175.897435897437,4166.666666666668,4191.794871794873,4184.102564102565,4207.692307692309,4213.846153846155,4189.743589743592,4193.333333333335,861.0,2047.0,2048.0,0.0,0.0,4.0,4.0,4.0,4.0,0.0,4.0,4.0,4.0,4.0,0.0,4.0,4.0,4.0,4.0,4.0,4.0
111.0,0.0,4176.923076923078,4248.20512820513,4184.615384615386,4231.794871794873,4185.128205128207,4167.692307692309,4183.076923076925,4170.769230769232,4198.97435897436,4185.641025641027,4206.666666666668,4213.333333333335,4185.641025641027,4195.384615384617,828.0,2047.0,2048.0,0.0,0.0,4.0,4.0,4.0,4.0,0.0,4.0,4.0,4.0,4.0,0.0,4.0,4.0,4.0,4.0,4.0,4.0
112.0,0.0,4182.051282051283,4252.8205128205145,4191.794871794873,4233.846153846155,4189.743589743592,4171.282051282053,4177.435897435899,4173.333333333335,4197.435897435899,4186.153846153848,4207.692307692309,4218.46153846154,4186.153846153848,4197.94871794872,852.0,2047.0,2048.0,0.0,0.0,4.0,4.0,4.0,4.0,0.0,4.0,4.0,4.0,4.0,0.0,4.0,4.0,4.0,4.0,4.0,4.0
113.0,0.0,4175.384615384617,4246.153846153848,4177.435897435899,4230.256410256412,4187.179487179489,4165.641025641027,4171.794871794873,4171.794871794873,4190.256410256412,4185.128205128207,4204.102564102565,4213.333333333335,4190.256410256412,4189.743589743592,373.0,2047.0,2048.0,0.0,0.0,4.0,4.0,4.0,4.0,0.0,4.0,4.0,4.0,4.0,0.0,4.0,4.0,4.0,4.0,4.0,4.0
114.0,0.0,4172.307692307694,4251.794871794873,4174.871794871797,4212.8205128205145,4187.692307692309,4167.692307692309,4181.0256410256425,4177.94871794872,4194.871794871797,4185.128205128207,4189.743589743592,4210.769230769232,4186.666666666668,4188.71794871795,861.0,2047.0,2048.0,0.0,0.0,4.0,4.0,4.0,4.0,0.0,4.0,4.0,4.0,4.0,0.0,4.0,4.0,4.0,4.0,4.0,4.0
115.0,0.0,4180.512820512822,4270.769230769232,4195.897435897437,4203.076923076925,4193.333333333335,4172.8205128205145,4190.256410256412,4187.179487179489,4203.076923076925,4185.128205128207,4187.692307692309,4224.615384615386,4188.20512820513,4202.564102564104,828.0,2047.0,2048.0,0.0,0.0,4.0,4.0,4.0,4.0,0.0,4.0,4.0,4.0,4.0,0.0,4.0,4.0,4.0,4.0,4.0,4.0
116.0,0.0,4175.384615384617,4260.512820512822,4181.538461538463,4224.615384615386,4187.179487179489,4172.307692307694,4185.128205128207,4186.153846153848,4203.076923076925,4184.615384615386,4204.615384615386,4217.94871794872,4201.538461538463,4195.897435897437,852.0,2047.0,2048.0,0.0,0.0,4.0,4.0,4.0,4.0,0.0,4.0,4.0,4.0,4.0,0.0,4.0,4.0,4.0,4.0,4.0,4.0
117.0,0.0,4170.256410256412,4249.23076923077,4166.153846153848,4242.051282051283,4185.641025641027,4170.256410256412,4178.46153846154,4181.538461538463,4200.512820512822,4184.102564102565,4217.94871794872,4209.743589743592,4204.615384615386,4176.923076923078,373.0,2047.0,2048.0,0.0,0.0,4.0,4.0,4.0,4.0,0.0,4.0,4.0,4.0,4.0,0.0,4.0,4.0,4.0,4.0,4.0,4.0
118.0,0.0,4186.666666666668,4274.3589743589755,4190.769230769232,4228.71794871795,4189.23076923077,4178.46153846154,4192.307692307694,4188.20512820513,4208.71794871795,4184.102564102565,4224.615384615386,4214.3589743589755,4201.0256410256425,4194.871794871797,861.0,2047.0,2048.0,0.0,0.0,4.0,4.0,4.0,4.0,0.0,4.0,4.0,4.0,4.0,0.0,4.0,4.0,4.0,4.0,4.0,4.0
119.0,0.0,4193.333333333335,4285.128205128207,4199.487179487181,4224.615384615386,4189.743589743592,4184.102564102565,4202.564102564104,4195.897435897437,4215.384615384617,4185.128205128207,4227.179487179489,4217.94871794872,4205.641025641027,4213.333333333335,828.0,2047.0,2048.0,0.0,0.0,4.0,4.0,4.0,4.0,0.0,4.0,4.0,4.0,4.0,0.0,4.0,4.0,4.0,4.0,4.0,4.0
120.0,0.0,4174.3589743589755,4260.512820512822,4169.743589743592,4238.97435897436,4191.282051282053,4174.3589743589755,4183.589743589745,4188.71794871795,4206.666666666668,4184.615384615386,4218.46153846154,4211.794871794873,4202.051282051283,4189.23076923077,852.0,2047.0,2048.0,0.0,0.0,4.0,4.0,4.0,4.0,0.0,4.0,4.0,4.0,4.0,0.0,4.0,4.0,4.0,4.0,4.0,4.0
121.0,0.0,4158.46153846154,4245.641025641027,4154.3589743589755,4230.256410256412,4191.282051282053,4166.666666666668,4174.871794871797,4180.512820512822,4200.000000000002,4183.589743589745,4208.71794871795,4196.923076923078,4184.615384615386,4166.666666666668,373.0,2047.0,2048.0,0.0,0.0,4.0,4.0,4.0,4.0,0.0,4.0,4.0,4.0,4.0,0.0,4.0,4.0,4.0,4.0,4.0,4.0
122.0,0.0,4163.076923076925,4247.179487179489,4169.743589743592,4213.846153846155,4194.3589743589755,4171.794871794873,4183.076923076925,4183.589743589745,4202.564102564104,4185.641025641027,4219.487179487181,4205.128205128207,4186.153846153848,4175.897435897437,861.0,2047.0,2048.0,0.0,0.0,4.0,4.0,4.0,4.0,0.0,4.0,4.0,4.0,4.0,0.0,4.0,4.0,4.0,4.0,4.0,4.0
123.0,0.0,4175.384615384617,4246.153846153848,4174.3589743589755,4219.487179487181,4189.23076923077,4172.8205128205145,4176.923076923078,4183.076923076925,4204.102564102565,4186.153846153848,4233.846153846155,4216.923076923078,4205.128205128207,4189.23076923077,828.0,2047.0,2048.0,0.0,0.0,4.0,4.0,4.0,4.0,0.0,4.0,4.0,4.0,4.0,0.0,4.0,4.0,4.0,4.0,4.0,4.0
124.0,0.0,4174.871794871797,4237.94871794872,4164.102564102565,4223.589743589745,4185.641025641027,4169.743589743592,4179.487179487181,4184.102564102565,4202.564102564104,4184.615384615386,4228.20512820513,4210.769230769232,4200.512820512822,4183.589743589745,852.0,2047.0,2048.0,0.0,0.0,4.0,4.0,4.0,4.0,0.0,4.0,4.0,4.0,4.0,0.0,4.0,4.0,4.0,4.0,4.0,4.0
125.0,0.0,4165.641025641027,4229.23076923077,4166.153846153848,4217.435897435899,4192.307692307694,4171.282051282053,4190.769230769232,4186.153846153848,4201.0256410256425,4185.128205128207,4226.153846153848,4207.179487179489,4184.102564102565,4171.794871794873,373.0,2047.0,2048.0,0.0,0.0,4.0,4.0,4.0,4.0,0.0,4.0,4.0,4.0,4.0,0.0,4.0,4.0,4.0,4.0,4.0,4.0
126.0,0.0,4162.564102564104,4228.20512820513,4167.692307692309,4214.871794871797,4187.692307692309,4170.256410256412,4176.410256410258,4175.384615384617,4197.435897435899,4186.666666666668,4243.589743589745,4205.641025641027,4185.641025641027,4176.410256410258,861.0,2047.0,2048.0,0.0,0.0,4.0,4.0,4.0,4.0,0.0,4.0,4.0,4.0,4.0,0.0,4.0,4.0,4.0,4.0,4.0,4.0
127.0,0.0,4173.333333333335,4233.846153846155,4170.256410256412,4218.97435897436,4184.615384615386,4169.743589743592,4161.538461538463,4165.128205128207,4194.3589743589755,4185.641025641027,4255.897435897437,4210.256410256412,4191.794871794873,4186.666666666668,828.0,2047.0,2048.0,0.0,0.0,4.0,4.0,4.0,4.0,0.0,4.0,4.0,4.0,4.0,0.0,4.0,4.0,4.0,4.0,4.0,4.0
128.0,0.0,4177.94871794872,4233.333333333335,4174.3589743589755,4222.051282051283,4188.20512820513,4170.769230769232,4174.871794871797,4175.897435897437,4197.435897435899,4183.076923076925,4253.333333333335,4211.794871794873,4188.71794871795,4185.128205128207,852.0,2047.0,2048.0,0.0,0.0,4.0,4.0,4.0,4.0,0.0,4.0,4.0,4.0,4.0,0.0,4.0,4.0,4.0,4.0,4.0,4.0
0.0,0.0,4165.128205128207,4226.666666666668,4167.179487179489,4218.46153846154,4189.743589743592,4168.20512820513,4188.20512820513,4187.179487179489,4201.0256410256425,4183.076923076925,4250.769230769232,4208.71794871795,4185.641025641027,4177.435897435899,690.0,2047.0,2048.0,0.0,0.0,4.0,4.0,4.0,4.0,0.0,4.0,4.0,4.0,4.0,0.0,4.0,4.0,4.0,4.0,4.0,4.0
1.0,0.0,4163.076923076925,4231.794871794873,4168.20512820513,4215.897435897437,4186.666666666668,4167.179487179489,4183.076923076925,4186.153846153848,4202.051282051283,4185.128205128207,4252.8205128205145,4214.3589743589755,4192.8205128205145,4187.179487179489,833.0,2047.0,2048.0,0.0,0.0,4.0,4.0,4.0,4.0,0.0,4.0,4.0,4.0,4.0,0.0,4.0,4.0,4.0,4.0,4.0,4.0
2.0,0.0,4174.871794871797,4241.538461538463,4172.307692307694,4221.0256410256425,4184.102564102565,4170.769230769232,4173.333333333335,4181.538461538463,4203.076923076925,4185.128205128207,4258.46153846154,4208.71794871795,4200.000000000002,4195.384615384617,806.0,2047.0,2048.0,0.0,0.0,4.0,4.0,4.0,4.0,0.0,4.0,4.0,4.0,4.0,0.0,4.0,4.0,4.0,4.0,4.0,4.0
3.0,0.0,4177.435897435899,4236.410256410258,4174.3589743589755,4221.538461538463,4191.282051282053,4170.256410256412,4167.179487179489,4171.794871794873,4201.538461538463,4183.589743589745,4256.923076923078,4210.769230769232,4197.435897435899,4192.307692307694,805.0,2047.0,2048.0,0.0,0.0,4.0,4.0,4.0,4.0,0.0,4.0,4.0,4.0,4.0,0.0,4.0,4.0,4.0,4.0,4.0,4.0
4.0,0.0,4178.46153846154,4236.923076923078,4184.102564102565,4213.333333333335,4190.769230769232,4168.20512820513,4170.769230769232,4169.23076923077,4197.435897435899,4185.641025641027,4247.179487179489,4219.487179487181,4198.46153846154,4201.538461538463,0.0,2047.0,2048.0,0.0,0.0,4.0,4.0,4.0,4.0,0.0,4.0,4.0,4.0,4.0,0.0,4.0,4.0,4.0,4.0,4.0,4.0
5.0,0.0,4194.3589743589755,4251.282051282053,4194.3589743589755,4219.487179487181,4185.641025641027,4173.846153846155,4180.000000000002,4182.564102564104,4197.435897435899,4186.666666666668,4249.743589743592,4216.410256410258,4205.641025641027,4212.8205128205145,785.0,2047.0,2048.0,0.0,0.0,4.0,4.0,4.0,4.0,0.0,4.0,4.0,4.0,4.0,0.0,4.0,4.0,4.0,4.0,4.0,4.0
6.0,0.0,4199.487179487181,4252.8205128205145,4193.333333333335,4226.666666666668,4188.71794871795,4181.538461538463,4187.179487179489,4189.743589743592,4199.487179487181,4185.641025641027,4245.128205128207,4222.564102564104,4204.102564102565,4205.128205128207,797.0,2047.0,2048.0,0.0,0.0,4.0,4.0,4.0,4.0,0.0,4.0,4.0,4.0,4.0,0.0,4.0,4.0,4.0,4.0,4.0,4.0
7.0,0.0,4177.94871794872,4250.769230769232,4176.923076923078,4216.923076923078,4186.666666666668,4184.615384615386,4191.282051282053,4189.23076923077,4200.512820512822,4185.128205128207,4232.307692307694,4220.000000000002,4195.384615384617,4190.769230769232,810.0,2047.0,2048.0,0.0,0.0,4.0,4.0,4.0,4.0,0.0,4.0,4.0,4.0,4.0,0.0,4.0,4.0,4.0,4.0,4.0,4.0
8.0,0.0,4171.282051282053,4268.20512820513,4175.897435897437,4214.871794871797,4187.692307692309,4188.20512820513,4191.794871794873,4196.923076923078,4204.102564102565,4184.615384615386,4248.71794871795,4219.487179487181,4195.897435897437,4191.794871794873,645.0,2047.0,2048.0,0.0,0.0,4.0,4.0,4.0,4.0,0.0,4.0,4.0,4.0,4.0,0.0,4.0,4.0,4.0,4.0,4.0,4.0
9.0,0.0,4182.051282051283,4272.307692307694,4185.641025641027,4221.538461538463,4189.743589743592,4187.692307692309,4192.307692307694,4207.179487179489,4206.153846153848,4185.128205128207,4263.076923076925,4225.641025641027,4206.666666666668,4201.538461538463,0.0,2047.0,2048.0,0.0,0.0,4.0,4.0,4.0,4.0,0.0,4.0,4.0,4.0,4.0,0.0,4.0,4.0,4.0,4.0,4.0,4.0
10.0,0.0,4175.897435897437,4256.923076923078,4179.487179487181,4212.8205128205145,4185.641025641027,4181.0256410256425,4190.256410256412,4199.487179487181,4200.512820512822,4185.641025641027,4235.384615384617,4218.97435897436,4210.769230769232,4193.846153846155,856.0,2047.0,2048.0,0.0,0.0,4.0,4.0,4.0,4.0,0.0,4.0,4.0,4.0,4.0,0.0,4.0,4.0,4.0,4.0,4.0,4.0
11.0,0.0,4178.97435897436,4264.615384615386,4189.743589743592,4196.923076923078,4189.23076923077,4182.564102564104,4184.615384615386,4186.153846153848,4198.46153846154,4185.641025641027,4225.128205128207,4223.589743589745,4202.564102564104,4199.487179487181,828.0,2047.0,2048.0,0.0,0.0,4.0,4.0,4.0,4.0,0.0,4.0,4.0,4.0,4.0,0.0,4.0,4.0,4.0,4.0,4.0,4.0
12.0,0.0,4194.3589743589755,4274.3589743589755,4201.0256410256425,4198.46153846154,4189.743589743592,4185.128205128207,4182.564102564104,4183.076923076925,4199.487179487181,4185.128205128207,4244.102564102565,4225.128205128207,4201.538461538463,4218.97435897436,852.0,2047.0,2048.0,0.0,0.0,4.0,4.0,4.0,4.0,0.0,4.0,4.0,4.0,4.0,0.0,4.0,4.0,4.0,4.0,4.0,4.0
13.0,0.0,4183.076923076925,4257.94871794872,4181.538461538463,4209.23076923077,4185.641025641027,4174.871794871797,4180.512820512822,4179.487179487181,4189.23076923077,4185.128205128207,4229.23076923077,4216.410256410258,4195.897435897437,4198.46153846154,370.0,2047.0,2048.0,0.0,0.0,4.0,4.0,4.0,4.0,0.0,4.0,4.0,4.0,4.0,0.0,4.0,4.0,4.0,4.0,4.0,4.0
14.0,0.0,4153.846153846155,4242.051282051283,4151.282051282053,4208.20512820513,4188.20512820513,4172.8205128205145,4174.3589743589755,4173.846153846155,4182.564102564104,4186.153846153848,4214.871794871797,4202.051282051283,4177.94871794872,4157.435897435899,856.0,2047.0,2048.0,0.0,0.0,4.0,4.0,4.0,4.0,0.0,4.0,4.0,4.0,4.0,0.0,4.0,4.0,4.0,4.0,4.0,4.0
15.0,0.0,4150.769230769232,4243.076923076925,4146.153846153848,4205.128205128207,4190.769230769232,4180.000000000002,4171.794871794873,4181.0256410256425,4194.3589743589755,4186.153846153848,4238.46153846154,4193.333333333335,4185.641025641027,4161.538461538463,828.0,2047.0,2048.0,0.0,0.0,4.0,4.0,4.0,4.0,0.0,4.0,4.0,4.0,4.0,0.0,4.0,4.0,4.0,4.0,4.0,4.0
16.0,0.0,4170.769230769232,4246.666666666668,4169.743589743592,4211.794871794873,4191.794871794873,4180.512820512822,4174.3589743589755,4192.307692307694,4202.051282051283,4185.641025641027,4255.897435897437,4211.794871794873,4213.846153846155,4192.307692307694,0.0,2047.0,2048.0,0.0,0.0,4.0,4.0,4.0,4.0,0.0,4.0,4.0,4.0,4.0,0.0,4.0,4.0,4.0,4.0,4.0,4.0
17.0,0.0,4179.487179487181,4246.153846153848,4173.846153846155,4216.923076923078,4187.179487179489,4178.46153846154,4174.3589743589755,4188.20512820513,4200.000000000002,4184.615384615386,4253.333333333335,4216.923076923078,4218.46153846154,4196.410256410258,0.0,2047.0,2048.0,0.0,0.0,4.0,4.0,4.0,4.0,0.0,4.0,4.0,4.0,4.0,0.0,4.0,4.0,4.0,4.0,4.0,4.0
18.0,0.0,4186.153846153848,4248.71794871795,4174.3589743589755,4217.94871794872,4190.256410256412,4181.538461538463,4177.435897435899,4185.128205128207,4200.000000000002,4184.615384615386,4259.487179487181,4216.923076923078,4209.23076923077,4198.97435897436,0.0,2047.0,2048.0,0.0,0.0,4.0,4.0,4.0,4.0,0.0,4.0,4.0,4.0,4.0,0.0,4.0,4.0,4.0,4.0,4.0,4.0
19.0,0.0,4188.71794871795,4250.256410256412,4188.71794871795,4221.538461538463,4196.923076923078,4185.128205128207,4186.153846153848,4189.743589743592,4194.871794871797,4185.641025641027,4268.71794871795,4220.512820512822,4207.692307692309,4203.589743589745,0.0,2047.0,2048.0,0.0,0.0,4.0,4.0,4.0,4.0,0.0,4.0,4.0,4.0,4.0,0.0,4.0,4.0,4.0,4.0,4.0,4.0
20.0,0.0,4177.94871794872,4244.615384615386,4180.512820512822,4218.97435897436,4190.769230769232,4183.076923076925,4188.71794871795,4182.051282051283,4186.153846153848,4184.102564102565,4264.102564102565,4209.23076923077,4201.538461538463,4195.384615384617,0.0,2047.0,2048.0,0.0,0.0,4.0,4.0,4.0,4.0,0.0,4.0,4.0,4.0,4.0,0.0,4.0,4.0,4.0,4.0,4.0,4.0
21.0,0.0,4175.897435897437,4235.897435897437,4170.769230769232,4213.846153846155,4187.179487179489,4174.3589743589755,4185.641025641027,4172.307692307694,4184.615384615386,4184.102564102565,4264.615384615386,4212.8205128205145,4196.410256410258,4193.846153846155,0.0,2047.0,2048.0,0.0,0.0,4.0,4.0,4.0,4.0,0.0,4.0,4.0,4.0,4.0,0.0,4.0,4.0,4.0,4.0,4.0,4.0
22.0,0.0,4174.3589743589755,4232.307692307694,4168.71794871795,4216.410256410258,4189.23076923077,4169.743589743592,4180.512820512822,4180.000000000002,4185.641025641027,4186.153846153848,4269.743589743592,4217.94871794872,4200.512820512822,4195.384615384617,0.0,2047.0,2048.0,0.0,0.0,4.0,4.0,4.0,4.0,0.0,4.0,4.0,4.0,4.0,0.0,4.0,4.0,4.0,4.0,4.0,4.0
23.0,0.0,4167.179487179489,4233.333333333335,4173.846153846155,4212.307692307694,4193.333333333335,4178.97435897436,4186.666666666668,4193.846153846155,4192.307692307694,4185.641025641027,4271.794871794873,4214.3589743589755,4200.512820512822,4193.846153846155,0.0,2047.0,2048.0,0.0,0.0,4.0,4.0,4.0,4.0,0.0,4.0,4.0,4.0,4.0,0.0,4.0,4.0,4.0,4.0,4.0,4.0
24.0,0.0,4171.282051282053,4230.769230769232,4178.46153846154,4207.692307692309,4192.8205128205145,4187.179487179489,4201.0256410256425,4199.487179487181,4204.615384615386,4185.641025641027,4274.871794871797,4216.410256410258,4197.94871794872,4193.846153846155,0.0,2047.0,2048.0,0.0,0.0,4.0,4.0,4.0,4.0,0.0,4.0,4.0,4.0,4.0,0.0,4.0,4.0,4.0,4.0,4.0,4.0
25.0,0.0,4182.564102564104,4233.333333333335,4175.897435897437,4211.282051282053,4184.615384615386,4188.20512820513,4207.692307692309,4203.589743589745,4205.641025641027,4186.666666666668,4282.051282051283,4215.384615384617,4209.23076923077,4204.615384615386,0.0,2047.0,2048.0,0.0,0.0,4.0,4.0,4.0,4.0,0.0,4.0,4.0,4.0,4.0,0.0,4.0,4.0,4.0,4.0,4.0,4.0
26.0,0.0,4194.3589743589755,4246.666666666668,4192.8205128205145,4222.051282051283,4191.794871794873,4180.512820512822,4195.897435897437,4200.512820512822,4199.487179487181,4186.666666666668,4290.769230769232,4223.589743589745,4228.20512820513,4222.051282051283,0.0,2047.0,2048.0,0.0,0.0,4.0,4.0,4.0,4.0,0.0,4.0,4.0,4.0,4.0,0.0,4.0,4.0,4.0,4.0,4.0,4.0
27.0,0.0,4196.410256410258,4252.307692307694,4197.94871794872,4221.0256410256425,4195.384615384617,4171.282051282053,4181.538461538463,4187.692307692309,4200.512820512822,4185.641025641027,4288.71794871795,4220.512820512822,4225.128205128207,4217.94871794872,0.0,2047.0,2048.0,0.0,0.0,4.0,4.0,4.0,4.0,0.0,4.0,4.0,4.0,4.0,0.0,4.0,4.0,4.0,4.0,4.0,4.0
28.0,0.0,4185.641025641027,4248.71794871795,4178.97435897436,4204.102564102565,4186.666666666668,4171.794871794873,4181.0256410256425,4183.076923076925,4201.0256410256425,4186.153846153848,4270.769230769232,4211.282051282053,4206.666666666668,4199.487179487181,0.0,2047.0,2048.0,0.0,0.0,4.0,4.0,4.0,4.0,0.0,4.0,4.0,4.0,4.0,0.0,4.0,4.0,4.0,4.0,4.0,4.0
29.0,0.0,4183.076923076925,4246.666666666668,4183.076923076925,4204.615384615386,4188.71794871795,4173.846153846155,4185.128205128207,4185.128205128207,4195.897435897437,4186.153846153848,4252.307692307694,4220.000000000002,4209.23076923077,4205.128205128207,0.0,2047.0,2048.0,0.0,0.0,4.0,4.0,4.0,4.0,0.0,4.0,4.0,4.0,4.0,0.0,4.0,4.0,4.0,4.0,4.0,4.0
30.0,0.0,4185.641025641027,4246.153846153848,4188.71794871795,4221.0256410256425,4192.307692307694,4171.794871794873,4186.666666666668,4188.20512820513,4197.435897435899,4185.641025641027,4252.307692307694,4215.384615384617,4210.769230769232,4212.307692307694,0.0,2047.0,2048.0,0.0,0.0,4.0,4.0,4.0,4.0,0.0,4.0,4.0,4.0,4.0,0.0,4.0,4.0,4.0,4.0,4.0,4.0
31.0,0.0,4188.71794871795,4257.435897435899,4185.128205128207,4216.410256410258,4191.794871794873,4173.333333333335,4187.179487179489,4188.20512820513,4198.46153846154,4185.641025641027,4257.435897435899,4210.769230769232,4198.46153846154,4203.589743589745,0.0,2047.0,2048.0,0.0,0.0,4.0,4.0,4.0,4.0,0.0,4.0,4.0,4.0,4.0,0.0,4.0,4.0,4.0,4.0,4.0,4.0
32.0,0.0,4200.000000000002,4268.71794871795,4195.384615384617,4206.153846153848,4188.20512820513,4172.8205128205145,4186.153846153848,4183.076923076925,4193.846153846155,4185.641025641027,4246.666666666668,4216.410256410258,4202.051282051283,4208.71794871795,0.0,2047.0,2048.0,0.0,0.0,4.0,4.0,4.0,4.0,0.0,4.0,4.0,4.0,4.0,0.0,4.0,4.0,4.0,4.0,4.0,4.0
33.0,0.0,4209.743589743592,4266.666666666668,4206.153846153848,4216.410256410258,4187.692307692309,4170.256410256412,4183.589743589745,4181.0256410256425,4194.3589743589755,4185.128205128207,4240.000000000002,4218.97435897436,4212.8205128205145,4222.564102564104,0.0,2047.0,2048.0,0.0,0.0,4.0,4.0,4.0,4.0,0.0,4.0,4.0,4.0,4.0,0.0,4.0,4.0,4.0,4.0,4.0,4.0
34.0,0.0,4196.923076923078,4263.589743589745,4190.256410256412,4223.589743589745,4191.282051282053,4175.384615384617,4186.666666666668,4190.256410256412,4204.102564102565,4185.128205128207,4248.71794871795,4216.923076923078,4202.051282051283,4211.282051282053,0.0,2047.0,2048.0,0.0,0.0,4.0,4.0,4.0,4.0,0.0,4.0,4.0,4.0,4.0,0.0,4.0,4.0,4.0,4.0,4.0,4.0
35.0,0.0,4172.8205128205145,4263.076923076925,4164.102564102565,4203.076923076925,4190.256410256412,4175.897435897437,4188.71794871795,4184.615384615386,4202.051282051283,4184.615384615386,4238.97435897436,4200.512820512822,4191.794871794873,4186.666666666668,0.0,2047.0,2048.0,0.0,0.0,4.0,4.0,4.0,4.0,0.0,4.0,4.0,4.0,4.0,0.0,4.0,4.0,4.0,4.0,4.0,4.0
36.0,0.0,4174.871794871797,4252.307692307694,4180.512820512822,4175.897435897437,4192.8205128205145,4168.20512820513,4183.076923076925,4167.179487179489,4186.666666666668,4185.128205128207,4211.282051282053,4207.179487179489,4201.538461538463,4192.307692307694,0.0,2047.0,2048.0,0.0,0.0,4.0,4.0,4.0,4.0,0.0,4.0,4.0,4.0,4.0,0.0,4.0,4.0,4.0,4.0,4.0,4.0
37.0,0.0,4180.000000000002,4243.589743589745,4191.282051282053,4180.000000000002,4192.307692307694,4166.666666666668,4181.538461538463,4173.846153846155,4184.102564102565,4185.641025641027,4210.769230769232,4217.435897435899,4200.512820512822,4206.666666666668,0.0,2047.0,2048.0,0.0,0.0,4.0,4.0,4.0,4.0,0.0,4.0,4.0,4.0,4.0,0.0,4.0,4.0,4.0,4.0,4.0,4.0
38.0,0.0,4171.282051282053,4249.743589743592,4161.0256410256425,4204.102564102565,4189.23076923077,4170.256410256412,4182.051282051283,4186.153846153848,4188.71794871795,4185.128205128207,4228.71794871795,4205.641025641027,4192.8205128205145,4191.794871794873,0.0,2047.0,2048.0,0.0,0.0,4.0,4.0,4.0,4.0,0.0,4.0,4.0,4.0,4.0,0.0,4.0,4.0,4.0,4.0,4.0,4.0
39.0,0.0,4175.384615384617,4251.282051282053,4160.000000000002,4209.743589743592,4193.846153846155,4169.23076923077,4180.512820512822,4182.051282051283,4186.153846153848,4185.128205128207,4236.410256410258,4207.692307692309,4202.564102564104,4181.0256410256425,0.0,2047.0,2048.0,0.0,0.0,4.0,4.0,4.0,4.0,0.0,4.0,4.0,4.0,4.0,0.0,4.0,4.0,4.0,4.0,4.0,4.0
40.0,0.0,4188.71794871795,4247.692307692309,4184.615384615386,4192.307692307694,4192.8205128205145,4168.71794871795,4182.564102564104,4181.0256410256425,4184.615384615386,4185.641025641027,4237.94871794872,4213.846153846155,4218.46153846154,4200.000000000002,0.0,2047.0,2048.0,0.0,0.0,4.0,4.0,4.0,4.0,0.0,4.0,4.0,4.0,4.0,0.0,4.0,4.0,4.0,4.0,4.0,4.0
41.0,0.0,4193.846153846155,4251.794871794873,4190.256410256412,4185.128205128207,4190.769230769232,4170.256410256412,4185.641025641027,4186.153846153848,4185.641025641027,4186.666666666668,4240.000000000002,4218.46153846154,4219.487179487181,4212.8205128205145,0.0,2047.0,2048.0,0.0,0.0,4.0,4.0,4.0,4.0,0.0,4.0,4.0,4.0,4.0,0.0,4.0,4.0,4.0,4.0,4.0,4.0
42.0,0.0,4181.0256410256425,4244.615384615386,4170.769230769232,4193.333333333335,4189.743589743592,4169.743589743592,4183.076923076925,4182.564102564104,4187.179487179489,4186.666666666668,4232.8205128205145,4214.3589743589755,4200.000000000002,4198.97435897436,0.0,2047.0,2048.0,0.0,0.0,4.0,4.0,4.0,4.0,0.0,4.0,4.0,4.0,4.0,0.0,4.0,4.0,4.0,4.0,4.0,4.0
43.0,0.0,4171.282051282053,4227.179487179489,4160.000000000002,4196.923076923078,4187.692307692309,4174.871794871797,4178.97435897436,4181.0256410256425,4196.410256410258,4186.153846153848,4224.615384615386,4204.102564102565,4186.153846153848,4189.743589743592,0.0,2047.0,2048.0,0.0,0.0,4.0,4.0,4.0,4.0,0.0,4.0,4.0,4.0,4.0,0.0,4.0,4.0,4.0,4.0,4.0,4.0
44.0,0.0,4188.71794871795,4236.923076923078,4180.000000000002,4202.564102564104,4192.8205128205145,4186.153846153848,4187.179487179489,4183.589743589745,4203.076923076925,4185.641025641027,4236.923076923078,4214.3589743589755,4202.051282051283,4202.051282051283,0.0,2047.0,2048.0,0.0,0.0,4.0,4.0,4.0,4.0,0.0,4.0,4.0,4.0,4.0,0.0,4.0,4.0,4.0,4.0,4.0,4.0
45.0,0.0,4206.153846153848,4251.794871794873,4191.794871794873,4209.743589743592,4190.256410256412,4189.23076923077,4196.923076923078,4184.615384615386,4197.94871794872,4184.615384615386,4260.512820512822,4221.0256410256425,4233.333333333335,4222.564102564104,0.0,2047.0,2048.0,0.0,0.0,4.0,4.0,4.0,4.0,0.0,4.0,4.0,4.0,4.0,0.0,4.0,4.0,4.0,4.0,4.0,4.0
46.0,0.0,4207.692307692309,4240.512820512822,4187.179487179489,4211.282051282053,4187.692307692309,4186.666666666668,4193.333333333335,4187.179487179489,4197.94871794872,4185.641025641027,4267.692307692309,4222.564102564104,4247.179487179489,4235.897435897437,0.0,2047.0,2048.0,0.0,0.0,4.0,4.0,4.0,4.0,0.0,4.0,4.0,4.0,4.0,0.0,4.0,4.0,4.0,4.0,4.0,4.0
47.0,0.0,4204.615384615386,4229.23076923077,4185.128205128207,4205.641025641027,4187.179487179489,4191.794871794873,4189.743589743592,4187.692307692309,4201.0256410256425,4187.179487179489,4266.153846153848,4224.615384615386,4245.641025641027,4234.3589743589755,0.0,2047.0,2048.0,0.0,0.0,4.0,4.0,4.0,4.0,0.0,4.0,4.0,4.0,4.0,0.0,4.0,4.0,4.0,4.0,4.0,4.0
48.0,0.0,4200.512820512822,4229.23076923077,4185.641025641027,4202.051282051283,4186.666666666668,4196.410256410258,4200.512820512822,4192.307692307694,4197.435897435899,4183.589743589745,4264.102564102565,4217.435897435899,4244.615384615386,4228.20512820513,0.0,2047.0,2048.0,0.0,0.0,4.0,4.0,4.0,4.0,0.0,4.0,4.0,4.0,4.0,0.0,4.0,4.0,4.0,4.0,4.0,4.0
49.0,0.0,4193.846153846155,4223.076923076925,4186.666666666668,4201.0256410256425,4192.307692307694,4191.282051282053,4202.564102564104,4200.512820512822,4197.435897435899,4184.615384615386,4256.410256410258,4218.46153846154,4234.871794871797,4223.589743589745,0.0,2047.0,2048.0,0.0,0.0,4.0,4.0,4.0,4.0,0.0,4.0,4.0,4.0,4.0,0.0,4.0,4.0,4.0,4.0,4.0,4.0
50.0,0.0,4180.512820512822,4210.256410256412,4174.3589743589755,4191.282051282053,4190.256410256412,4183.589743589745,4185.641025641027,4200.512820512822,4202.564102564104,4192.307692307694,4246.153846153848,4211.282051282053,4223.589743589745,4210.769230769232,0.0,2047.0,2048.0,0.0,0.0,4.0,4.0,4.0,4.0,0.0,4.0,4.0,4.0,4.0,0.0,4.0,4.0,4.0,4.0,4.0,4.0
51.0,0.0,4173.333333333335,4206.153846153848,4166.153846153848,4184.615384615386,4188.20512820513,4182.051282051283,4185.128205128207,4195.897435897437,4203.076923076925,4191.282051282053,4243.076923076925,4207.692307692309,4216.410256410258,4198.97435897436,0.0,2047.0,2048.0,0.0,0.0,4.0,4.0,4.0,4.0,0.0,4.0,4.0,4.0,4.0,0.0,4.0,4.0,4.0,4.0,4.0,4.0
52.0,0.0,4182.051282051283,4215.384615384617,4174.871794871797,4186.666666666668,4190.769230769232,4185.128205128207,4201.538461538463,4199.487179487181,4202.564102564104,4183.076923076925,4243.589743589745,4216.410256410258,4215.897435897437,4203.076923076925,0.0,2047.0,2048.0,0.0,0.0,4.0,4.0,4.0,4.0,0.0,4.0,4.0,4.0,4.0,0.0,4.0,4.0,4.0,4.0,4.0,4.0
53.0,0.0,4190.769230769232,4220.512820512822,4179.487179487181,4189.743589743592,4188.71794871795,4186.153846153848,4205.641025641027,4199.487179487181,4203.076923076925,4184.102564102565,4243.589743589745,4214.3589743589755,4223.076923076925,4211.794871794873,0.0,2047.0,2048.0,0.0,0.0,4.0,4.0,4.0,4.0,0.0,4.0,4.0,4.0,4.0,0.0,4.0,4.0,4.0,4.0,4.0,4.0
54.0,0.0,4197.94871794872,4222.051282051283,4189.23076923077,4200.512820512822,4189.23076923077,4184.615384615386,4198.46153846154,4189.743589743592,4200.000000000002,4187.692307692309,4246.666666666668,4220.512820512822,4230.256410256412,4217.94871794872,0.0,2047.0,2048.0,0.0,0.0,4.0,4.0,4.0,4.0,0.0,4.0,4.0,4.0,4.0,0.0,4.0,4.0,4.0,4.0,4.0,4.0
55.0,0.0,4203.076923076925,4230.256410256412,4198.46153846154,4208.20512820513,4187.179487179489,4186.153846153848,4195.897435897437,4185.128205128207,4196.923076923078,4185.128205128207,4244.615384615386,4222.051282051283,4232.307692307694,4225.128205128207,0.0,2047.0,2048.0,0.0,0.0,4.0,4.0,4.0,4.0,0.0,4.0,4.0,4.0,4.0,0.0,4.0,4.0,4.0,4.0,4.0,4.0
56.0,0.0,4200.512820512822,4232.307692307694,4194.871794871797,4201.0256410256425,4187.179487179489,4190.256410256412,4200.512820512822,4195.384615384617,4203.076923076925,4184.102564102565,4240.000000000002,4220.512820512822,4228.20512820513,4224.102564102565,0.0,2047.0,2048.0,0.0,0.0,4.0,4.0,4.0,4.0,0.0,4.0,4.0,4.0,4.0,0.0,4.0,4.0,4.0,4.0,4.0,4.0
57.0,0.0,4197.435897435899,4230.769230769232,4193.333333333335,4189.743589743592,4188.71794871795,4189.23076923077,4197.94871794872,4199.487179487181,4203.589743589745,4184.615384615386,4231.282051282053,4224.102564102565,4222.051282051283,4216.923076923078,0.0,2047.0,2048.0,0.0,0.0,4.0,4.0,4.0,4.0,0.0,4.0,4.0,4.0,4.0,0.0,4.0,4.0,4.0,4.0,4.0,4.0
58.0,0.0,4187.692307692309,4240.512820512822,4187.179487179489,4186.666666666668,4186.666666666668,4183.076923076925,4189.23076923077,4185.641025641027,4187.692307692309,4183.589743589745,4210.769230769232,4213.846153846155,4209.743589743592,4214.871794871797,0.0,2047.0,2048.0,0.0,0.0,4.0,4.0,4.0,4.0,0.0,4.0,4.0,4.0,4.0,0.0,4.0,4.0,4.0,4.0,4.0,4.0
59.0,0.0,4177.435897435899,4247.692307692309,4182.564102564104,4183.589743589745,4190.769230769232,4183.589743589745,4188.20512820513,4178.97435897436,4187.179487179489,4184.615384615386,4204.615384615386,4210.769230769232,4202.564102564104,4208.20512820513,0.0,2047.0,2048.0,0.0,0.0,4.0,4.0,4.0,4.0,0.0,4.0,4.0,4.0,4.0,0.0,4.0,4.0,4.0,4.0,4.0,4.0
60.0,0.0,4184.615384615386,4243.076923076925,4184.102564102565,4185.641025641027,4190.769230769232,4186.666666666668,4188.71794871795,4184.102564102565,4201.0256410256425,4186.153846153848,4213.333333333335,4206.666666666668,4215.897435897437,4197.94871794872,0.0,2047.0,2048.0,0.0,0.0,4.0,4.0,4.0,4.0,0.0,4.0,4.0,4.0,4.0,0.0,4.0,4.0,4.0,4.0,4.0,4.0
61.0,0.0,4202.051282051283,4248.71794871795,4192.8205128205145,4198.97435897436,4188.71794871795,4185.641025641027,4185.128205128207,4183.076923076925,4201.0256410256425,4186.153846153848,4218.46153846154,4209.23076923077,4228.20512820513,4208.71794871795,0.0,2047.0,2048.0,0.0,0.0,4.0,4.0,4.0,4.0,0.0,4.0,4.0,4.0,4.0,0.0,4.0,4.0,4.0,4.0,4.0,4.0
62.0,0.0,4204.102564102565,4255.384615384617,4196.410256410258,4203.589743589745,4192.307692307694,4185.128205128207,4189.743589743592,4187.179487179489,4198.46153846154,4185.641025641027,4225.128205128207,4220.000000000002,4222.564102564104,4224.102564102565,0.0,2047.0,2048.0,0.0,0.0,4.0,4.0,4.0,4.0,0.0,4.0,4.0,4.0,4.0,0.0,4.0,4.0,4.0,4.0,4.0,4.0
63.0,0.0,4191.282051282053,4246.153846153848,4182.564102564104,4193.846153846155,4190.769230769232,4187.179487179489,4200.000000000002,4199.487179487181,4205.641025641027,4184.615384615386,4224.615384615386,4214.3589743589755,4220.000000000002,4216.410256410258,0.0,2047.0,2048.0,0.0,0.0,4.0,4.0,4.0,4.0,0.0,4.0,4.0,4.0,4.0,0.0,4.0,4.0,4.0,4.0,4.0,4.0
64.0,0.0,4183.076923076925,4234.871794871797,4174.871794871797,4191.794871794873,4189.743589743592,4188.20512820513,4203.589743589745,4204.615384615386,4206.153846153848,4185.128205128207,4215.384615384617,4214.3589743589755,4218.97435897436,4202.051282051283,690.0,2047.0,2048.0,0.0,0.0,4.0,4.0,4.0,4.0,0.0,4.0,4.0,4.0,4.0,0.0,4.0,4.0,4.0,4.0,4.0,4.0
65.0,0.0,4178.46153846154,4226.666666666668,4170.769230769232,4186.666666666668,4188.20512820513,4186.666666666668,4198.97435897436,4202.564102564104,4200.512820512822,4185.641025641027,4222.051282051283,4210.769230769232,4206.666666666668,4198.46153846154,834.0,2047.0,2048.0,0.0,0.0,4.0,4.0,4.0,4.0,0.0,4.0,4.0,4.0,4.0,0.0,4.0,4.0,4.0,4.0,4.0,4.0
66.0,0.0,4178.46153846154,4221.538461538463,4171.794871794873,4171.794871794873,4188.71794871795,4184.102564102565,4191.794871794873,4201.0256410256425,4199.487179487181,4185.128205128207,4232.307692307694,4205.128205128207,4202.051282051283,4201.0256410256425,806.0,2047.0,2048.0,0.0,0.0,4.0,4.0,4.0,4.0,0.0,4.0,4.0,4.0,4.0,0.0,4.0,4.0,4.0,4.0,4.0,4.0
67.0,0.0,4180.512820512822,4214.871794871797,4180.000000000002,4172.307692307694,4194.3589743589755,4183.076923076925,4193.846153846155,4201.538461538463,4199.487179487181,4185.128205128207,4221.538461538463,4214.3589743589755,4205.641025641027,4201.538461538463,805.0,2047.0,2048.0,0.0,0.0,4.0,4.0,4.0,4.0,0.0,4.0,4.0,4.0,4.0,0.0,4.0,4.0,4.0,4.0,4.0,4.0
68.0,0.0,4175.897435897437,4203.076923076925,4174.3589743589755,4180.000000000002,4192.307692307694,4183.076923076925,4200.000000000002,4203.076923076925,4200.512820512822,4185.128205128207,4214.871794871797,4210.769230769232,4203.076923076925,4202.051282051283,0.0,2047.0,2048.0,0.0,0.0,4.0,4.0,4.0,4.0,0.0,4.0,4.0,4.0,4.0,0.0,4.0,4.0,4.0,4.0,4.0,4.0
69.0,0.0,4173.333333333335,4196.923076923078,4172.8205128205145,4178.46153846154,4189.23076923077,4183.589743589745,4191.794871794873,4192.307692307694,4197.435897435899,4186.153846153848,4218.46153846154,4209.23076923077,4201.0256410256425,4206.153846153848,785.0,2047.0,2048.0,0.0,0.0,4.0,4.0,4.0,4.0,0.0,4.0,4.0,4.0,4.0,0.0,4.0,4.0,4.0,4.0,4.0,4.0
70.0,0.0,4175.384615384617,4202.051282051283,4176.410256410258,4179.487179487181,4187.692307692309,4183.589743589745,4182.051282051283,4181.0256410256425,4189.743589743592,4186.153846153848,4214.3589743589755,4210.769230769232,4205.641025641027,4205.128205128207,798.0,2047.0,2048.0,0.0,0.0,4.0,4.0,4.0,4.0,0.0,4.0,4.0,4.0,4.0,0.0,4.0,4.0,4.0,4.0,4.0,4.0
71.0,0.0,4178.97435897436,4210.769230769232,4175.897435897437,4185.128205128207,4188.71794871795,4184.615384615386,4191.794871794873,4190.256410256412,4191.282051282053,4185.641025641027,4214.871794871797,4209.743589743592,4210.769230769232,4200.000000000002,813.0,2047.0,2048.0,0.0,0.0,4.0,4.0,4.0,4.0,0.0,4.0,4.0,4.0,4.0,0.0,4.0,4.0,4.0,4.0,4.0,4.0
72.0,0.0,4186.666666666668,4215.384615384617,4183.589743589745,4193.846153846155,4190.769230769232,4186.153846153848,4202.051282051283,4201.538461538463,4198.46153846154,4186.666666666668,4226.153846153848,4221.538461538463,4215.897435897437,4209.23076923077,645.0,2047.0,2048.0,0.0,0.0,4.0,4.0,4.0,4.0,0.0,4.0,4.0,4.0,4.0,0.0,4.0,4.0,4.0,4.0,4.0,4.0
73.0,0.0,4189.743589743592,4212.8205128205145,4189.23076923077,4198.97435897436,4184.615384615386,4186.153846153848,4200.000000000002,4203.589743589745,4202.564102564104,4186.666666666668,4234.871794871797,4221.0256410256425,4220.512820512822,4219.487179487181,0.0,2047.0,2048.0,0.0,0.0,4.0,4.0,4.0,4.0,0.0,4.0,4.0,4.0,4.0,0.0,4.0,4.0,4.0,4.0,4.0,4.0
74.0,0.0,4188.71794871795,4207.692307692309,4193.846153846155,4192.8205128205145,4187.692307692309,4180.000000000002,4197.94871794872,4200.000000000002,4197.435897435899,4185.128205128207,4228.20512820513,4215.384615384617,4219.487179487181,4215.897435897437,856.0,2047.0,2048.0,0.0,0.0,4.0,4.0,4.0,4.0,0.0,4.0,4.0,4.0,4.0,0.0,4.0,4.0,4.0,4.0,4.0,4.0
75.0,0.0,4192.307692307694,4208.71794871795,4197.94871794872,4188.20512820513,4192.8205128205145,4172.8205128205145,4196.923076923078,4192.8205128205145,4189.743589743592,4184.102564102565,4218.97435897436,4213.333333333335,4220.000000000002,4213.846153846155,828.0,2047.0,2048.0,0.0,0.0,4.0,4.0,4.0,4.0,0.0,4.0,4.0,4.0,4.0,0.0,4.0,4.0,4.0,4.0,4.0,4.0
76.0,0.0,4194.871794871797,4214.3589743589755,4192.307692307694,4195.384615384617,4190.769230769232,4173.846153846155,4198.97435897436,4192.8205128205145,4190.769230769232,4184.615384615386,4218.97435897436,4212.8205128205145,4224.102564102565,4212.8205128205145,852.0,2047.0,2048.0,0.0,0.0,4.0,4.0,4.0,4.0,0.0,4.0,4.0,4.0,4.0,0.0,4.0,4.0,4.0,4.0,4.0,4.0
77.0,0.0,4189.23076923077,4212.307692307694,4187.179487179489,4193.333333333335,4192.8205128205145,4178.97435897436,4197.94871794872,4198.46153846154,4194.3589743589755,4186.666666666668,4221.538461538463,4215.897435897437,4220.512820512822,4206.153846153848,370.0,2047.0,2048.0,0.0,0.0,4.0,4.0,4.0,4.0,0.0,4.0,4.0,4.0,4.0,0.0,4.0,4.0,4.0,4.0,4.0,4.0
78.0,0.0,4182.564102564104,4205.128205128207,4180.000000000002,4184.615384615386,4191.282051282053,4183.589743589745,4190.769230769232,4201.538461538463,4192.8205128205145,4187.179487179489,4217.435897435899,4208.20512820513,4215.897435897437,4201.0256410256425,856.0,2047.0,2048.0,0.0,0.0,4.0,4.0,4.0,4.0,0.0,4.0,4.0,4.0,4.0,0.0,4.0,4.0,4.0,4.0,4.0,4.0
79.0,0.0,4191.282051282053,4212.307692307694,4187.692307692309,4187.179487179489,4192.307692307694,4180.512820512822,4187.179487179489,4195.897435897437,4186.153846153848,4186.153846153848,4208.71794871795,4211.794871794873,4215.384615384617,4206.153846153848,828.0,2047.0,2048.0,0.0,0.0,4.0,4.0,4.0,4.0,0.0,4.0,4.0,4.0,4.0,0.0,4.0,4.0,4.0,4.0,4.0,4.0
80.0,0.0,4191.794871794873,4223.076923076925,4195.384615384617,4185.641025641027,4190.256410256412,4173.333333333335,4191.282051282053,4186.666666666668,4184.102564102565,4185.128205128207,4194.3589743589755,4216.410256410258,4202.051282051283,4206.666666666668,852.0,2047.0,2048.0,0.0,0.0,4.0,4.0,4.0,4.0,0.0,4.0,4.0,4.0,4.0,0.0,4.0,4.0,4.0,4.0,4.0,4.0
81.0,0.0,4181.538461538463,4227.179487179489,4184.615384615386,4186.153846153848,4184.102564102565,4175.384615384617,4197.435897435899,4191.794871794873,4191.282051282053,4184.615384615386,4185.641025641027,4207.179487179489,4186.666666666668,4196.923076923078,370.0,2047.0,2048.0,0.0,0.0,4.0,4.0,4.0,4.0,0.0,4.0,4.0,4.0,4.0,0.0,4.0,4.0,4.0,4.0,4.0,4.0
82.0,0.0,4194.871794871797,4248.20512820513,4196.410256410258,4200.000000000002,4191.282051282053,4185.641025641027,4201.0256410256425,4205.128205128207,4201.538461538463,4185.641025641027,4191.282051282053,4213.333333333335,4197.94871794872,4204.102564102565,856.0,2047.0,2048.0,0.0,0.0,4.0,4.0,4.0,4.0,0.0,4.0,4.0,4.0,4.0,0.0,4.0,4.0,4.0,4.0,4.0,4.0
83.0,0.0,4209.743589743592,4273.333333333335,4212.8205128205145,4199.487179487181,4193.846153846155,4185.641025641027,4200.512820512822,4206.666666666668,4203.076923076925,4186.153846153848,4194.871794871797,4217.435897435899,4221.0256410256425,4224.615384615386,828.0,2047.0,2048.0,0.0,0.0,4.0,4.0,4.0,4.0,0.0,4.0,4.0,4.0,4.0,0.0,4.0,4.0,4.0,4.0,4.0,4.0
84.0,0.0,4202.051282051283,4267.692307692309,4202.564102564104,4186.153846153848,4190.769230769232,4180.512820512822,4197.435897435899,4202.564102564104,4198.46153846154,4185.641025641027,4183.076923076925,4216.410256410258,4213.846153846155,4225.128205128207,852.0,2047.0,2048.0,0.0,0.0,4.0,4.0,4.0,4.0,0.0,4.0,4.0,4.0,4.0,0.0,4.0,4.0,4.0,4.0,4.0,4.0
85.0,0.0,4192.307692307694,4253.846153846155,4186.153846153848,4184.102564102565,4191.282051282053,4180.000000000002,4198.97435897436,4198.97435897436,4196.923076923078,4185.641025641027,4173.333333333335,4214.3589743589755,4195.384615384617,4209.23076923077,370.0,2047.0,2048.0,0.0,0.0,4.0,4.0,4.0,4.0,0.0,4.0,4.0,4.0,4.0,0.0,4.0,4.0,4.0,4.0,4.0,4.0
86.0,0.0,4186.666666666668,4261.0256410256425,4180.000000000002,4185.641025641027,4189.743589743592,4175.384615384617,4200.000000000002,4189.23076923077,4190.256410256412,4186.666666666668,4172.307692307694,4204.615384615386,4191.794871794873,4200.512820512822,856.0,2047.0,2048.0,0.0,0.0,4.0,4.0,4.0,4.0,0.0,4.0,4.0,4.0,4.0,0.0,4.0,4.0,4.0,4.0,4.0,4.0
87.0,0.0,4186.153846153848,4268.71794871795,4185.128205128207,4183.589743589745,4189.743589743592,4170.256410256412,4189.743589743592,4181.0256410256425,4183.076923076925,4185.641025641027,4170.256410256412,4208.71794871795,4191.282051282053,4201.0256410256425,828.0,2047.0,2048.0,0.0,0.0,4.0,4.0,4.0,4.0,0.0,4.0,4.0,4.0,4.0,0.0,4.0,4.0,4.0,4.0,4.0,4.0
88.0,0.0,4197.435897435899,4274.871794871797,4194.871794871797,4186.666666666668,4188.71794871795,4171.282051282053,4182.564102564104,4185.128205128207,4185.128205128207,4184.102564102565,4170.769230769232,4212.8205128205145,4194.871794871797,4209.23076923077,852.0,2047.0,2048.0,0.0,0.0,4.0,4.0,4.0,4.0,0.0,4.0,4.0,4.0,4.0,0.0,4.0,4.0,4.0,4.0,4.0,4.0
89.0,0.0,4203.076923076925,4281.0256410256425,4201.538461538463,4184.615384615386,4190.769230769232,4173.333333333335,4191.794871794873,4189.743589743592,4186.153846153848,4184.615384615386,4172.8205128205145,4213.846153846155,4201.0256410256425,4218.97435897436,370.0,2047.0,2048.0,0.0,0.0,4.0,4.0,4.0,4.0,0.0,4.0,4.0,4.0,4.0,0.0,4.0,4.0,4.0,4.0,4.0,4.0
90.0,0.0,4184.102564102565,4268.71794871795,4187.692307692309,4173.333333333335,4191.794871794873,4173.333333333335,4196.410256410258,4188.20512820513,4185.128205128207,4185.128205128207,4162.051282051283,4209.743589743592,4192.307692307694,4203.589743589745,856.0,2047.0,2048.0,0.0,0.0,4.0,4.0,4.0,4.0,0.0,4.0,4.0,4.0,4.0,0.0,4.0,4.0,4.0,4.0,4.0,4.0
91.0,0.0,4164.102564102565,4254.871794871797,4163.589743589745,4164.615384615386,4188.20512820513,4170.769230769232,4187.179487179489,4183.589743589745,4186.153846153848,4184.615384615386,4151.282051282053,4192.8205128205145,4176.410256410258,4178.46153846154,828.0,2047.0,2048.0,0.0,0.0,4.0,4.0,4.0,4.0,0.0,4.0,4.0,4.0,4.0,0.0,4.0,4.0,4.0,4.0,4.0,4.0
92.0,0.0,4180.512820512822,4268.71794871795,4182.564102564104,4172.307692307694,4191.282051282053,4169.23076923077,4182.051282051283,4183.589743589745,4184.102564102565,4186.153846153848,4159.487179487181,4203.076923076925,4185.641025641027,4196.410256410258,852.0,2047.0,2048.0,0.0,0.0,4.0,4.0,4.0,4.0,0.0,4.0,4.0,4.0,4.0,0.0,4.0,4.0,4.0,4.0,4.0,4.0
93.0,0.0,4205.641025641027,4280.512820512822,4212.307692307694,4182.051282051283,4189.743589743592,4169.743589743592,4185.641025641027,4186.666666666668,4183.076923076925,4186.153846153848,4172.307692307694,4218.46153846154,4208.71794871795,4228.71794871795,370.0,2047.0,2048.0,0.0,0.0,4.0,4.0,4.0,4.0,0.0,4.0,4.0,4.0,4.0,0.0,4.0,4.0,4.0,4.0,4.0,4.0
94.0,0.0,4195.897435897437,4271.282051282053,4196.923076923078,4174.3589743589755,4186.153846153848,4169.743589743592,4187.179487179489,4183.589743589745,4186.153846153848,4185.641025641027,4168.71794871795,4212.8205128205145,4203.076923076925,4215.384615384617,856.0,2047.0,2048.0,0.0,0.0,4.0,4.0,4.0,4.0,0.0,4.0,4.0,4.0,4.0,0.0,4.0,4.0,4.0,4.0,4.0,4.0
95.0,0.0,4178.46153846154,4268.20512820513,4170.769230769232,4166.153846153848,4186.666666666668,4168.20512820513,4183.076923076925,4181.0256410256425,4186.153846153848,4186.666666666668,4148.71794871795,4201.538461538463,4182.051282051283,4189.23076923077,828.0,2047.0,2048.0,0.0,0.0,4.0,4.0,4.0,4.0,0.0,4.0,4.0,4.0,4.0,0.0,4.0,4.0,4.0,4.0,4.0,4.0
96.0,0.0,4183.076923076925,4273.846153846155,4175.384615384617,4171.794871794873,4187.692307692309,4169.743589743592,4186.153846153848,4186.153846153848,4186.153846153848,4185.641025641027,4136.410256410258,4193.846153846155,4182.051282051283,4193.846153846155,852.0,2047.0,2048.0,0.0,0.0,4.0,4.0,4.0,4.0,0.0,4.0,4.0,4.0,4.0,0.0,4.0,4.0,4.0,4.0,4.0,4.0
97.0,0.0,4197.435897435899,4274.871794871797,4200.000000000002,4174.3589743589755,4192.8205128205145,4171.282051282053,4189.23076923077,4190.256410256412,4186.153846153848,4184.102564102565,4138.97435897436,4209.23076923077,4201.0256410256425,4212.8205128205145,370.0,2047.0,2048.0,0.0,0.0,4.0,4.0,4.0,4.0,0.0,4.0,4.0,4.0,4.0,0.0,4.0,4.0,4.0,4.0,4.0,4.0
98.0,0.0,4202.564102564104,4274.3589743589755,4200.000000000002,4170.256410256412,4189.23076923077,4166.153846153848,4184.102564102565,4184.615384615386,4183.589743589745,4185.128205128207,4136.410256410258,4213.846153846155,4206.666666666668,4218.46153846154,856.0,2047.0,2048.0,0.0,0.0,4.0,4.0,4.0,4.0,0.0,4.0,4.0,4.0,4.0,0.0,4.0,4.0,4.0,4.0,4.0,4.0
99.0,0.0,4203.589743589745,4281.0256410256425,4196.410256410258,4169.23076923077,4184.615384615386,4166.666666666668,4186.666666666668,4179.487179487181,4184.102564102565,4185.641025641027,4129.23076923077,4205.641025641027,4197.94871794872,4215.897435897437,828.0,2047.0,2048.0,0.0,0.0,4.0,4.0,4.0,4.0,0.0,4.0,4.0,4.0,4.0,0.0,4.0,4.0,4.0,4.0,4.0,4.0
100.0,0.0,4192.8205128205145,4281.538461538463,4198.46153846154,4157.435897435899,4192.307692307694,4171.794871794873,4185.641025641027,4176.923076923078,4182.564102564104,4184.615384615386,4135.897435897437,4208.20512820513,4191.282051282053,4204.615384615386,852.0,2047.0,2048.0,0.0,0.0,4.0,4.0,4.0,4.0,0.0,4.0,4.0,4.0,4.0,0.0,4.0,4.0,4.0,4.0,4.0,4.0
101.0,0.0,4171.282051282053,4256.923076923078,4167.692307692309,4146.153846153848,4193.846153846155,4167.179487179489,4172.307692307694,4170.769230769232,4173.846153846155,4184.102564102565,4147.692307692309,4193.333333333335,4184.102564102565,4175.384615384617,370.0,2047.0,2048.0,0.0,0.0,4.0,4.0,4.0,4.0,0.0,4.0,4.0,4.0,4.0,0.0,4.0,4.0,4.0,4.0,4.0,4.0
102.0,0.0,4173.333333333335,4240.512820512822,4155.384615384617,4162.564102564104,4191.794871794873,4163.589743589745,4172.307692307694,4168.20512820513,4173.846153846155,4184.615384615386,4141.0256410256425,4191.794871794873,4182.051282051283,4168.71794871795,856.0,2047.0,2048.0,0.0,0.0,4.0,4.0,4.0,4.0,0.0,4.0,4.0,4.0,4.0,0.0,4.0,4.0,4.0,4.0,4.0,4.0
103.0,0.0,4185.128205128207,4254.3589743589755,4175.384615384617,4171.282051282053,4189.23076923077,4168.71794871795,4186.666666666668,4173.846153846155,4182.564102564104,4184.615384615386,4131.282051282053,4209.743589743592,4186.666666666668,4193.333333333335,828.0,2047.0,2048.0,0.0,0.0,4.0,4.0,4.0,4.0,0.0,4.0,4.0,4.0,4.0,0.0,4.0,4.0,4.0,4.0,4.0,4.0
104.0,0.0,4181.538461538463,4255.384615384617,4174.871794871797,4158.46153846154,4188.20512820513,4171.282051282053,4187.179487179489,4180.000000000002,4185.128205128207,4185.128205128207,4142.564102564104,4210.769230769232,4187.692307692309,4197.94871794872,852.0,2047.0,2048.0,0.0,0.0,4.0,4.0,4.0,4.0,0.0,4.0,4.0,4.0,4.0,0.0,4.0,4.0,4.0,4.0,4.0,4.0
105.0,0.0,4186.153846153848,4232.8205128205145,4166.153846153848,4166.666666666668,4192.307692307694,4169.743589743592,4181.0256410256425,4177.94871794872,4184.102564102565,4186.666666666668,4153.333333333335,4204.615384615386,4183.589743589745,4185.128205128207,370.0,2047.0,2048.0,0.0,0.0,4.0,4.0,4.0,4.0,0.0,4.0,4.0,4.0,4.0,0.0,4.0,4.0,4.0,4.0,4.0,4.0
106.0,0.0,4204.102564102565,4222.051282051283,4183.589743589745,4183.589743589745,4191.794871794873,4167.179487179489,4182.564102564104,4176.410256410258,4188.71794871795,4185.641025641027,4144.102564102565,4203.589743589745,4186.666666666668,4197.435897435899,856.0,2047.0,2048.0,0.0,0.0,4.0,4.0,4.0,4.0,0.0,4.0,4.0,4.0,4.0,0.0,4.0,4.0,4.0,4.0,4.0,4.0
107.0,0.0,4204.615384615386,4222.051282051283,4196.410256410258,4177.94871794872,4192.8205128205145,4166.666666666668,4184.615384615386,4181.538461538463,4193.846153846155,4184.102564102565,4147.692307692309,4213.846153846155,4203.076923076925,4213.846153846155,828.0,2047.0,2048.0,0.0,0.0,4.0,4.0,4.0,4.0,0.0,4.0,4.0,4.0,4.0,0.0,4.0,4.0,4.0,4.0,4.0,4.0
108.0,0.0,4193.333333333335,4215.384615384617,4175.897435897437,4174.871794871797,4188.20512820513,4174.871794871797,4192.307692307694,4194.871794871797,4201.538461538463,4185.641025641027,4176.923076923078,4212.307692307694,4218.46153846154,4207.179487179489,852.0,2047.0,2048.0,0.0,0.0,4.0,4.0,4.0,4.0,0.0,4.0,4.0,4.0,4.0,0.0,4.0,4.0,4.0,4.0,4.0,4.0
109.0,0.0,4194.3589743589755,4207.179487179489,4170.256410256412,4179.487179487181,4184.615384615386,4182.564102564104,4196.410256410258,4204.102564102565,4204.615384615386,4186.666666666668,4190.769230769232,4206.666666666668,4222.051282051283,4202.564102564104,370.0,2047.0,2048.0,0.0,0.0,4.0,4.0,4.0,4.0,0.0,4.0,4.0,4.0,4.0,0.0,4.0,4.0,4.0,4.0,4.0,4.0
110.0,0.0,4201.0256410256425,4202.051282051283,4196.410256410258,4178.97435897436,4192.307692307694,4181.0256410256425,4188.71794871795,4197.435897435899,4195.384615384617,4185.641025641027,4184.102564102565,4215.384615384617,4214.3589743589755,4206.666666666668,856.0,2047.0,2048.0,0.0,0.0,4.0,4.0,4.0,4.0,0.0,4.0,4.0,4.0,4.0,0.0,4.0,4.0,4.0,4.0,4.0,4.0
111.0,0.0,4197.94871794872,4197.435897435899,4193.333333333335,4182.051282051283,4192.8205128205145,4181.0256410256425,4183.076923076925,4187.692307692309,4185.128205128207,4184.615384615386,4183.076923076925,4206.666666666668,4206.153846153848,4203.076923076925,828.0,2047.0,2048.0,0.0,0.0,4.0,4.0,4.0,4.0,0.0,4.0,4.0,4.0,4.0,0.0,4.0,4.0,4.0,4.0,4.0,4.0
112.0,0.0,4196.923076923078,4196.923076923078,4176.410256410258,4187.692307692309,4189.23076923077,4185.128205128207,4182.051282051283,4182.564102564104,4181.538461538463,4185.128205128207,4182.564102564104,4205.128205128207,4205.128205128207,4202.564102564104,852.0,2047.0,2048.0,0.0,0.0,4.0,4.0,4.0,4.0,0.0,4.0,4.0,4.0,4.0,0.0,4.0,4.0,4.0,4.0,4.0,4.0
113.0,0.0,4194.871794871797,4190.769230769232,4178.46153846154,4184.615384615386,4186.153846153848,4184.102564102565,4182.051282051283,4182.564102564104,4181.0256410256425,4186.153846153848,4173.333333333335,4209.743589743592,4200.000000000002,4204.615384615386,370.0,2047.0,2048.0,0.0,0.0,4.0,4.0,4.0,4.0,0.0,4.0,4.0,4.0,4.0,0.0,4.0,4.0,4.0,4.0,4.0,4.0
114.0,0.0,4182.564102564104,4176.923076923078,4177.94871794872,4176.923076923078,4188.71794871795,4182.564102564104,4190.256410256412,4189.23076923077,4185.641025641027,4185.128205128207,4166.153846153848,4203.589743589745,4188.20512820513,4193.846153846155,856.0,2047.0,2048.0,0.0,0.0,4.0,4.0,4.0,4.0,0.0,4.0,4.0,4.0,4.0,0.0,4.0,4.0,4.0,4.0,4.0,4.0
115.0,0.0,4179.487179487181,4174.871794871797,4179.487179487181,4174.871794871797,4192.8205128205145,4186.153846153848,4204.102564102565,4201.538461538463,4196.923076923078,4184.102564102565,4173.333333333335,4212.307692307694,4186.153846153848,4186.153846153848,828.0,2047.0,2048.0,0.0,0.0,4.0,4.0,4.0,4.0,0.0,4.0,4.0,4.0,4.0,0.0,4.0,4.0,4.0,4.0,4.0,4.0
116.0,0.0,4188.71794871795,4186.153846153848,4180.512820512822,4180.512820512822,4186.153846153848,4178.97435897436,4200.512820512822,4205.641025641027,4202.051282051283,4186.153846153848,4185.128205128207,4212.8205128205145,4203.076923076925,4198.97435897436,852.0,2047.0,2048.0,0.0,0.0,4.0,4.0,4.0,4.0,0.0,4.0,4.0,4.0,4.0,0.0,4.0,4.0,4.0,4.0,4.0,4.0
117.0,0.0,4204.102564102565,4199.487179487181,4189.743589743592,4189.23076923077,4187.179487179489,4167.179487179489,4191.794871794873,4199.487179487181,4195.897435897437,4186.666666666668,4192.307692307694,4213.333333333335,4217.94871794872,4218.46153846154,370.0,2047.0,2048.0,0.0,0.0,4.0,4.0,4.0,4.0,0.0,4.0,4.0,4.0,4.0,0.0,4.0,4.0,4.0,4.0,4.0,4.0
118.0,0.0,4214.3589743589755,4202.564102564104,4201.538461538463,4189.23076923077,4191.282051282053,4173.333333333335,4195.384615384617,4199.487179487181,4198.46153846154,4184.615384615386,4202.564102564104,4220.000000000002,4219.487179487181,4222.051282051283,856.0,2047.0,2048.0,0.0,0.0,4.0,4.0,4.0,4.0,0.0,4.0,4.0,4.0,4.0,0.0,4.0,4.0,4.0,4.0,4.0,4.0
119.0,0.0,4210.769230769232,4194.871794871797,4195.384615384617,4185.128205128207,4187.692307692309,4184.615384615386,4195.384615384617,4198.97435897436,4199.487179487181,4184.615384615386,4202.564102564104,4215.384615384617,4217.435897435899,4218.46153846154,828.0,2047.0,2048.0,0.0,0.0,4.0,4.0,4.0,4.0,0.0,4.0,4.0,4.0,4.0,0.0,4.0,4.0,4.0,4.0,4.0,4.0
120.0,0.0,4205.641025641027,4188.20512820513,4191.794871794873,4186.153846153848,4190.769230769232,4183.076923076925,4186.153846153848,4188.20512820513,4189.23076923077,4185.641025641027,4190.256410256412,4217.435897435899,4217.435897435899,4220.000000000002,852.0,2047.0,2048.0,0.0,0.0,4.0,4.0,4.0,4.0,0.0,4.0,4.0,4.0,4.0,0.0,4.0,4.0,4.0,4.0,4.0,4.0
121.0,0.0,4203.076923076925,4191.794871794873,4190.256410256412,4184.102564102565,4190.769230769232,4181.538461538463,4190.256410256412,4183.076923076925,4187.179487179489,4183.076923076925,4184.615384615386,4212.8205128205145,4218.46153846154,4215.384615384617,370.0,2047.0,2048.0,0.0,0.0,4.0,4.0,4.0,4.0,0.0,4.0,4.0,4.0,4.0,0.0,4.0,4.0,4.0,4.0,4.0,4.0
122.0,0.0,4207.179487179489,4198.46153846154,4191.282051282053,4180.512820512822,4188.71794871795,4183.589743589745,4203.589743589745,4189.23076923077,4198.46153846154,4184.102564102565,4180.512820512822,4208.20512820513,4213.846153846155,4206.666666666668,856.0,2047.0,2048.0,0.0,0.0,4.0,4.0,4.0,4.0,0.0,4.0,4.0,4.0,4.0,0.0,4.0,4.0,4.0,4.0,4.0,4.0
123.0,0.0,4204.102564102565,4204.615384615386,4193.333333333335,4182.051282051283,4190.769230769232,4178.46153846154,4198.46153846154,4191.794871794873,4200.000000000002,4186.666666666668,4170.256410256412,4208.71794871795,4203.589743589745,4200.000000000002,828.0,2047.0,2048.0,0.0,0.0,4.0,4.0,4.0,4.0,0.0,4.0,4.0,4.0,4.0,0.0,4.0,4.0,4.0,4.0,4.0,4.0
124.0,0.0,4192.8205128205145,4212.8205128205145,4186.153846153848,4180.000000000002,4188.71794871795,4170.769230769232,4183.076923076925,4183.076923076925,4190.769230769232,4186.153846153848,4164.102564102565,4205.128205128207,4197.94871794872,4195.897435897437,852.0,2047.0,2048.0,0.0,0.0,4.0,4.0,4.0,4.0,0.0,4.0,4.0,4.0,4.0,0.0,4.0,4.0,4.0,4.0,4.0,4.0
125.0,0.0,4196.923076923078,4220.512820512822,4192.8205128205145,4178.97435897436,4191.794871794873,4169.743589743592,4180.512820512822,4176.923076923078,4186.153846153848,4185.641025641027,4165.128205128207,4213.333333333335,4201.0256410256425,4201.538461538463,370.0,2047.0,2048.0,0.0,0.0,4.0,4.0,4.0,4.0,0.0,4.0,4.0,4.0,4.0,0.0,4.0,4.0,4.0,4.0,4.0,4.0
126.0,0.0,4203.076923076925,4223.076923076925,4194.871794871797,4185.641025641027,4193.333333333335,4172.307692307694,4187.692307692309,4182.564102564104,4186.666666666668,4186.153846153848,4170.256410256412,4211.794871794873,4204.102564102565,4207.692307692309,856.0,2047.0,2048.0,0.0,0.0,4.0,4.0,4.0,4.0,0.0,4.0,4.0,4.0,4.0,0.0,4.0,4.0,4.0,4.0,4.0,4.0
127.0,0.0,4203.589743589745,4235.384615384617,4189.743589743592,4183.076923076925,4188.20512820513,4172.8205128205145,4187.692307692309,4188.20512820513,4187.692307692309,4185.641025641027,4170.256410256412,4209.743589743592,4203.589743589745,4206.153846153848,828.0,2047.0,2048.0,0.0,0.0,4.0,4.0,4.0,4.0,0.0,4.0,4.0,4.0,4.0,0.0,4.0,4.0,4.0,4.0,4.0,4.0
128.0,0.0,4206.153846153848,4244.102564102565,4192.8205128205145,4169.23076923077,4187.692307692309,4169.23076923077,4181.0256410256425,4182.051282051283,4187.179487179489,4184.102564102565,4161.538461538463,4216.410256410258,4198.97435897436,4203.589743589745,852.0,2047.0,2048.0,0.0,0.0,4.0,4.0,4.0,4.0,0.0,4.0,4.0,4.0,4.0,0.0,4.0,4.0,4.0,4.0,4.0,4.0
0.0,0.0,4196.410256410258,4233.846153846155,4188.71794871795,4167.692307692309,4189.743589743592,4167.179487179489,4183.076923076925,4175.384615384617,4184.615384615386,4183.589743589745,4151.282051282053,4209.23076923077,4192.8205128205145,4200.512820512822,690.0,2047.0,2048.0,0.0,0.0,4.0,4.0,4.0,4.0,0.0,4.0,4.0,4.0,4.0,0.0,4.0,4.0,4.0,4.0,4.0,4.0
1.0,0.0,4190.256410256412,4236.410256410258,4191.282051282053,4175.897435897437,4194.3589743589755,4170.256410256412,4187.179487179489,4182.564102564104,4185.128205128207,4184.615384615386,4149.743589743592,4212.307692307694,4197.94871794872,4202.051282051283,834.0,2047.0,2048.0,0.0,0.0,4.0,4.0,4.0,4.0,0.0,4.0,4.0,4.0,4.0,0.0,4.0,4.0,4.0,4.0,4.0,4.0
2.0,0.0,4202.051282051283,4252.8205128205145,4198.46153846154,4169.743589743592,4190.769230769232,4170.769230769232,4188.71794871795,4185.641025641027,4189.743589743592,4185.128205128207,4161.538461538463,4215.897435897437,4207.692307692309,4207.179487179489,806.0,2047.0,2048.0,0.0,0.0,4.0,4.0,4.0,4.0,0.0,4.0,4.0,4.0,4.0,0.0,4.0,4.0,4.0,4.0,4.0,4.0
3.0,0.0,4199.487179487181,4244.615384615386,4190.769230769232,4162.051282051283,4188.71794871795,4168.71794871795,4189.23076923077,4174.871794871797,4190.256410256412,4185.128205128207,4170.256410256412,4211.282051282053,4198.97435897436,4200.000000000002,801.0,2047.0,2048.0,0.0,0.0,4.0,4.0,4.0,4.0,0.0,4.0,4.0,4.0,4.0,0.0,4.0,4.0,4.0,4.0,4.0,4.0
4.0,0.0,4184.615384615386,4228.20512820513,4181.0256410256425,4165.641025641027,4192.307692307694,4167.179487179489,4182.051282051283,4166.666666666668,4181.0256410256425,4185.128205128207,4156.923076923078,4209.23076923077,4182.564102564104,4190.769230769232,0.0,2047.0,2048.0,0.0,0.0,4.0,4.0,4.0,4.0,0.0,4.0,4.0,4.0,4.0,0.0,4.0,4.0,4.0,4.0,4.0,4.0
5.0,0.0,4183.589743589745,4233.333333333335,4175.897435897437,4162.564102564104,4188.20512820513,4171.794871794873,4177.435897435899,4168.20512820513,4176.923076923078,4184.102564102565,4147.692307692309,4198.97435897436,4180.000000000002,4189.23076923077,785.0,2047.0,2048.0,0.0,0.0,4.0,4.0,4.0,4.0,0.0,4.0,4.0,4.0,4.0,0.0,4.0,4.0,4.0,4.0,4.0,4.0
6.0,0.0,4191.794871794873,4242.564102564104,4183.076923076925,4155.384615384617,4191.794871794873,4182.564102564104,4183.076923076925,4170.769230769232,4183.076923076925,4184.102564102565,4162.564102564104,4201.0256410256425,4191.282051282053,4188.71794871795,799.0,2047.0,2048.0,0.0,0.0,4.0,4.0,4.0,4.0,0.0,4.0,4.0,4.0,4.0,0.0,4.0,4.0,4.0,4.0,4.0,4.0
7.0,0.0,4195.384615384617,4236.923076923078,4191.282051282053,4153.333333333335,4191.794871794873,4185.641025641027,4187.692307692309,4178.97435897436,4188.71794871795,4184.102564102565,4166.153846153848,4206.153846153848,4201.538461538463,4190.256410256412,813.0,2047.0,2048.0,0.0,0.0,4.0,4.0,4.0,4.0,0.0,4.0,4.0,4.0,4.0,0.0,4.0,4.0,4.0,4.0,4.0,4.0
