COUNTER,INTERPOLATED,AF3,F7,F3,FC5,T7,P7,O1,O2,P8,T8,FC6,F4,F8,AF4,RAW_CQ,GYROX,GYROY,MARKER,SYNC,CQ_AF3,CQ_F7,CQ_F3,CQ_FC5,CQ_T7,CQ_P7,CQ_O1,CQ_O2,CQ_P8,CQ_T8,CQ_FC6,CQ_F4,CQ_F8,CQ_AF4,CQ_CMS,CQ_DRL
90.0,0.0,4201.0256410256425,4246.153846153848,4190.256410256412,4140.000000000002,4189.743589743592,4168.20512820513,3925.641025641027,4186.666666666668,4182.051282051283,4193.846153846155,4186.153846153848,4224.615384615386,4220.512820512822,4210.769230769232,862.0,2043.0,2035.0,0.0,0.0,0.0,0.0,0.0,0.0,0.0,0.0,0.0,0.0,0.0,0.0,0.0,0.0,0.0,0.0,0.0,0.0
91.0,0.0,4177.94871794872,4246.666666666668,4183.076923076925,4143.076923076925,4189.23076923077,4169.743589743592,4008.71794871795,4190.769230769232,4189.23076923077,4201.0256410256425,4189.743589743592,4218.46153846154,4227.692307692309,4205.128205128207,819.0,2045.0,2037.0,0.0,0.0,0.0,0.0,0.0,0.0,0.0,0.0,0.0,0.0,0.0,0.0,0.0,0.0,0.0,0.0,0.0,0.0
92.0,0.0,4163.076923076925,4247.692307692309,4185.128205128207,4154.3589743589755,4191.282051282053,4174.871794871797,4103.076923076925,4190.769230769232,4187.179487179489,4193.846153846155,4187.179487179489,4217.94871794872,4219.487179487181,4204.102564102565,854.0,2046.0,2037.0,0.0,0.0,0.0,0.0,0.0,0.0,0.0,0.0,0.0,0.0,0.0,0.0,0.0,0.0,0.0,0.0,0.0,0.0
93.0,0.0,4169.23076923077,4249.743589743592,4188.20512820513,4152.307692307694,4187.179487179489,4180.000000000002,4101.0256410256425,4196.410256410258,4182.051282051283,4188.20512820513,4184.102564102565,4220.512820512822,4213.846153846155,4205.128205128207,850.0,2048.0,2040.0,0.0,0.0,0.0,0.0,0.0,0.0,0.0,0.0,0.0,0.0,0.0,0.0,0.0,0.0,0.0,0.0,0.0,0.0
94.0,0.0,4165.641025641027,4245.641025641027,4180.000000000002,4140.000000000002,4188.20512820513,4176.410256410258,4152.8205128205145,4202.564102564104,4184.615384615386,4197.94871794872,4183.589743589745,4215.897435897437,4216.923076923078,4200.000000000002,862.0,2050.0,2039.0,0.0,0.0,0.0,0.0,0.0,0.0,0.0,0.0,0.0,0.0,0.0,0.0,0.0,0.0,0.0,0.0,0.0,0.0
95.0,0.0,4159.487179487181,4243.589743589745,4180.000000000002,4139.487179487181,4190.769230769232,4171.282051282053,4327.692307692309,4200.512820512822,4190.769230769232,4202.051282051283,4191.794871794873,4215.897435897437,4222.051282051283,4198.46153846154,819.0,2051.0,2040.0,0.0,0.0,0.0,0.0,0.0,0.0,0.0,0.0,0.0,0.0,0.0,0.0,0.0,0.0,0.0,0.0,0.0,0.0
96.0,0.0,4167.692307692309,4246.153846153848,4184.615384615386,4143.589743589745,4187.692307692309,4172.8205128205145,4341.538461538463,4196.923076923078,4189.23076923077,4196.923076923078,4194.3589743589755,4218.97435897436,4223.076923076925,4201.538461538463,854.0,2051.0,2039.0,0.0,0.0,0.0,0.0,0.0,0.0,0.0,0.0,0.0,0.0,0.0,0.0,0.0,0.0,0.0,0.0,0.0,0.0
97.0,0.0,4168.71794871795,4239.487179487181,4178.46153846154,4142.051282051283,4188.71794871795,4173.333333333335,4207.179487179489,4194.871794871797,4184.615384615386,4198.97435897436,4186.666666666668,4215.384615384617,4218.46153846154,4199.487179487181,850.0,2051.0,2040.0,0.0,0.0,0.0,0.0,0.0,0.0,0.0,0.0,0.0,0.0,0.0,0.0,0.0,0.0,0.0,0.0,0.0,0.0
98.0,0.0,4163.589743589745,4231.282051282053,4175.897435897437,4142.051282051283,4188.71794871795,4172.307692307694,4214.871794871797,4194.3589743589755,4189.23076923077,4198.46153846154,4191.282051282053,4216.410256410258,4218.46153846154,4200.512820512822,862.0,2052.0,2039.0,0.0,0.0,0.0,0.0,0.0,0.0,0.0,0.0,0.0,0.0,0.0,0.0,0.0,0.0,0.0,0.0,0.0,0.0
99.0,0.0,4163.076923076925,4232.307692307694,4181.0256410256425,4144.615384615386,4190.256410256412,4177.435897435899,4290.256410256412,4193.846153846155,4189.743589743592,4188.20512820513,4191.282051282053,4215.897435897437,4216.923076923078,4195.897435897437,819.0,2053.0,2039.0,0.0,0.0,0.0,0.0,0.0,0.0,0.0,0.0,0.0,0.0,0.0,0.0,0.0,0.0,0.0,0.0,0.0,0.0
100.0,0.0,4167.179487179489,4235.384615384617,4182.564102564104,4147.692307692309,4190.256410256412,4182.051282051283,4237.435897435899,4188.20512820513,4180.512820512822,4186.666666666668,4176.410256410258,4207.179487179489,4211.282051282053,4188.20512820513,854.0,2053.0,2040.0,0.0,0.0,0.0,0.0,0.0,0.0,0.0,0.0,0.0,0.0,0.0,0.0,0.0,0.0,0.0,0.0,0.0,0.0
101.0,0.0,4166.153846153848,4233.846153846155,4180.000000000002,4146.666666666668,4186.666666666668,4178.46153846154,4237.435897435899,4182.051282051283,4176.923076923078,4192.8205128205145,4175.897435897437,4209.743589743592,4209.23076923077,4189.23076923077,850.0,2054.0,2040.0,0.0,0.0,0.0,0.0,0.0,0.0,0.0,0.0,0.0,0.0,0.0,0.0,0.0,0.0,0.0,0.0,0.0,0.0
102.0,0.0,4154.871794871797,4220.000000000002,4177.94871794872,4135.897435897437,4188.20512820513,4172.307692307694,4328.20512820513,4185.641025641027,4183.589743589745,4190.256410256412,4189.743589743592,4215.384615384617,4207.692307692309,4190.256410256412,862.0,2055.0,2042.0,0.0,0.0,0.0,0.0,0.0,0.0,0.0,0.0,0.0,0.0,0.0,0.0,0.0,0.0,0.0,0.0,0.0,0.0
103.0,0.0,4156.923076923078,4200.000000000002,4171.794871794873,4122.564102564104,4185.641025641027,4169.743589743592,4236.923076923078,4189.23076923077,4181.538461538463,4188.20512820513,4182.564102564104,4205.128205128207,4198.46153846154,4178.46153846154,819.0,2053.0,2045.0,0.0,0.0,0.0,0.0,0.0,0.0,0.0,0.0,0.0,0.0,0.0,0.0,0.0,0.0,0.0,0.0,0.0,0.0
104.0,0.0,4187.692307692309,4205.128205128207,4178.97435897436,4132.8205128205145,4187.179487179489,4173.846153846155,4047.1794871794887,4189.743589743592,4175.897435897437,4196.923076923078,4176.923076923078,4202.564102564104,4198.97435897436,4178.97435897436,854.0,2052.0,2046.0,0.0,0.0,0.0,0.0,0.0,0.0,0.0,0.0,0.0,0.0,0.0,0.0,0.0,0.0,0.0,0.0,0.0,0.0
105.0,0.0,4204.615384615386,4221.538461538463,4191.282051282053,4145.641025641027,4189.743589743592,4173.846153846155,4029.230769230771,4192.307692307694,4182.564102564104,4205.128205128207,4188.20512820513,4214.871794871797,4212.307692307694,4194.871794871797,850.0,2053.0,2049.0,0.0,0.0,0.0,0.0,0.0,0.0,0.0,0.0,0.0,0.0,0.0,0.0,0.0,0.0,0.0,0.0,0.0,0.0
106.0,0.0,4180.512820512822,4207.692307692309,4174.871794871797,4129.743589743592,4185.128205128207,4164.102564102565,4130.769230769232,4185.128205128207,4180.512820512822,4198.46153846154,4177.94871794872,4205.641025641027,4199.487179487181,4183.076923076925,862.0,2052.0,2052.0,0.0,0.0,0.0,0.0,0.0,0.0,0.0,0.0,0.0,0.0,0.0,0.0,0.0,0.0,0.0,0.0,0.0,0.0
107.0,0.0,4163.076923076925,4191.282051282053,4160.000000000002,4113.846153846155,4188.20512820513,4166.153846153848,4204.615384615386,4180.000000000002,4174.871794871797,4189.23076923077,4166.153846153848,4190.256410256412,4180.000000000002,4162.564102564104,819.0,2051.0,2054.0,0.0,0.0,0.0,0.0,0.0,0.0,0.0,0.0,0.0,0.0,0.0,0.0,0.0,0.0,0.0,0.0,0.0,0.0
108.0,0.0,4181.538461538463,4206.153846153848,4174.3589743589755,4130.256410256412,4188.20512820513,4181.0256410256425,4206.153846153848,4189.743589743592,4182.051282051283,4192.8205128205145,4179.487179487181,4206.153846153848,4195.897435897437,4180.512820512822,854.0,2052.0,2055.0,0.0,0.0,0.0,0.0,0.0,0.0,0.0,0.0,0.0,0.0,0.0,0.0,0.0,0.0,0.0,0.0,0.0,0.0
109.0,0.0,4202.051282051283,4225.128205128207,4190.769230769232,4152.307692307694,4186.666666666668,4184.615384615386,4103.076923076925,4196.410256410258,4191.794871794873,4198.97435897436,4192.307692307694,4224.102564102565,4223.076923076925,4205.641025641027,850.0,2052.0,2055.0,0.0,0.0,0.0,0.0,0.0,0.0,0.0,0.0,0.0,0.0,0.0,0.0,0.0,0.0,0.0,0.0,0.0,0.0
110.0,0.0,4193.333333333335,4220.512820512822,4186.153846153848,4144.615384615386,4188.71794871795,4170.256410256412,3995.8974358974374,4183.589743589745,4186.153846153848,4193.333333333335,4184.615384615386,4213.846153846155,4216.923076923078,4194.871794871797,862.0,2053.0,2055.0,0.0,0.0,0.0,0.0,0.0,0.0,0.0,0.0,0.0,0.0,0.0,0.0,0.0,0.0,0.0,0.0,0.0,0.0
111.0,0.0,4180.512820512822,4211.282051282053,4178.46153846154,4132.8205128205145,4187.179487179489,4165.641025641027,4014.358974358976,4176.923076923078,4176.410256410258,4184.615384615386,4173.846153846155,4203.589743589745,4196.410256410258,4178.46153846154,819.0,2054.0,2054.0,0.0,0.0,0.0,0.0,0.0,0.0,0.0,0.0,0.0,0.0,0.0,0.0,0.0,0.0,0.0,0.0,0.0,0.0
112.0,0.0,4194.871794871797,4219.487179487181,4189.23076923077,4146.153846153848,4188.20512820513,4177.435897435899,4076.9230769230785,4189.23076923077,4182.051282051283,4189.23076923077,4180.000000000002,4215.384615384617,4210.769230769232,4191.794871794873,854.0,2054.0,2054.0,0.0,0.0,0.0,0.0,0.0,0.0,0.0,0.0,0.0,0.0,0.0,0.0,0.0,0.0,0.0,0.0,0.0,0.0
113.0,0.0,4206.153846153848,4223.589743589745,4198.97435897436,4156.923076923078,4184.615384615386,4176.923076923078,4123.076923076925,4189.743589743592,4187.179487179489,4189.23076923077,4187.179487179489,4220.512820512822,4219.487179487181,4197.94871794872,850.0,2054.0,2052.0,0.0,0.0,0.0,0.0,0.0,0.0,0.0,0.0,0.0,0.0,0.0,0.0,0.0,0.0,0.0,0.0,0.0,0.0
114.0,0.0,4194.871794871797,4212.8205128205145,4192.307692307694,4147.692307692309,4184.102564102565,4171.794871794873,4172.8205128205145,4183.589743589745,4182.564102564104,4184.615384615386,4182.051282051283,4208.71794871795,4198.46153846154,4185.641025641027,862.0,2054.0,2049.0,0.0,0.0,0.0,0.0,0.0,0.0,0.0,0.0,0.0,0.0,0.0,0.0,0.0,0.0,0.0,0.0,0.0,0.0
115.0,0.0,4198.97435897436,4215.897435897437,4196.410256410258,4152.8205128205145,4189.23076923077,4183.589743589745,4166.666666666668,4197.94871794872,4188.71794871795,4195.897435897437,4187.179487179489,4220.000000000002,4203.589743589745,4195.384615384617,819.0,2056.0,2042.0,0.0,0.0,0.0,0.0,0.0,0.0,0.0,0.0,0.0,0.0,0.0,0.0,0.0,0.0,0.0,0.0,0.0,0.0
116.0,0.0,4212.8205128205145,4223.076923076925,4208.71794871795,4165.641025641027,4185.128205128207,4186.153846153848,4176.923076923078,4210.769230769232,4202.564102564104,4203.589743589745,4202.051282051283,4237.435897435899,4228.20512820513,4213.333333333335,854.0,2056.0,2038.0,0.0,0.0,0.0,0.0,0.0,0.0,0.0,0.0,0.0,0.0,0.0,0.0,0.0,0.0,0.0,0.0,0.0,0.0
117.0,0.0,4197.94871794872,4208.20512820513,4196.923076923078,4147.179487179489,4183.589743589745,4172.8205128205145,4272.307692307694,4196.923076923078,4196.923076923078,4193.846153846155,4195.384615384617,4220.512820512822,4213.846153846155,4198.46153846154,850.0,2052.0,2031.0,0.0,0.0,0.0,0.0,0.0,0.0,0.0,0.0,0.0,0.0,0.0,0.0,0.0,0.0,0.0,0.0,0.0,0.0
118.0,0.0,4180.000000000002,4194.871794871797,4177.94871794872,4129.743589743592,4186.666666666668,4172.307692307694,4323.076923076925,4180.512820512822,4179.487179487181,4184.102564102565,4177.435897435899,4202.564102564104,4190.769230769232,4182.051282051283,862.0,2052.0,2030.0,0.0,0.0,0.0,0.0,0.0,0.0,0.0,0.0,0.0,0.0,0.0,0.0,0.0,0.0,0.0,0.0,0.0,0.0
119.0,0.0,4190.769230769232,4203.589743589745,4184.615384615386,4147.692307692309,4187.179487179489,4181.0256410256425,4294.871794871797,4186.153846153848,4181.0256410256425,4188.20512820513,4182.564102564104,4210.769230769232,4208.71794871795,4196.923076923078,819.0,2051.0,2029.0,0.0,0.0,0.0,0.0,0.0,0.0,0.0,0.0,0.0,0.0,0.0,0.0,0.0,0.0,0.0,0.0,0.0,0.0
120.0,0.0,4196.410256410258,4205.641025641027,4193.333333333335,4156.410256410258,4187.692307692309,4178.97435897436,4255.384615384617,4191.794871794873,4192.307692307694,4191.794871794873,4191.794871794873,4212.8205128205145,4222.564102564104,4204.615384615386,854.0,2050.0,2024.0,0.0,0.0,0.0,0.0,0.0,0.0,0.0,0.0,0.0,0.0,0.0,0.0,0.0,0.0,0.0,0.0,0.0,0.0
121.0,0.0,4175.384615384617,4190.256410256412,4177.94871794872,4137.94871794872,4185.128205128207,4175.384615384617,4206.666666666668,4184.102564102565,4183.589743589745,4186.666666666668,4177.94871794872,4196.923076923078,4201.538461538463,4186.153846153848,850.0,2049.0,2023.0,0.0,0.0,0.0,0.0,0.0,0.0,0.0,0.0,0.0,0.0,0.0,0.0,0.0,0.0,0.0,0.0,0.0,0.0
122.0,0.0,4161.538461538463,4178.46153846154,4167.692307692309,4129.23076923077,4185.128205128207,4181.538461538463,4186.153846153848,4181.0256410256425,4167.692307692309,4183.589743589745,4161.538461538463,4190.256410256412,4180.512820512822,4172.307692307694,862.0,2048.0,2020.0,0.0,0.0,0.0,0.0,0.0,0.0,0.0,0.0,0.0,0.0,0.0,0.0,0.0,0.0,0.0,0.0,0.0,0.0
123.0,0.0,4183.589743589745,4187.692307692309,4188.20512820513,4145.128205128207,4185.641025641027,4183.589743589745,4267.179487179489,4191.794871794873,4175.384615384617,4186.153846153848,4173.333333333335,4207.179487179489,4195.384615384617,4191.282051282053,819.0,2048.0,2020.0,0.0,0.0,0.0,0.0,0.0,0.0,0.0,0.0,0.0,0.0,0.0,0.0,0.0,0.0,0.0,0.0,0.0,0.0
124.0,0.0,4204.615384615386,4199.487179487181,4207.692307692309,4155.384615384617,4187.179487179489,4182.051282051283,4360.512820512822,4197.94871794872,4192.307692307694,4190.256410256412,4192.307692307694,4223.076923076925,4217.435897435899,4209.743589743592,854.0,2045.0,2023.0,0.0,0.0,0.0,0.0,0.0,0.0,0.0,0.0,0.0,0.0,0.0,0.0,0.0,0.0,0.0,0.0,0.0,0.0
125.0,0.0,4189.23076923077,4186.666666666668,4193.333333333335,4143.589743589745,4190.769230769232,4180.512820512822,4427.692307692309,4187.692307692309,4188.20512820513,4188.20512820513,4180.512820512822,4210.769230769232,4203.589743589745,4196.410256410258,850.0,2046.0,2026.0,0.0,0.0,0.0,0.0,0.0,0.0,0.0,0.0,0.0,0.0,0.0,0.0,0.0,0.0,0.0,0.0,0.0,0.0
126.0,0.0,4173.846153846155,4169.23076923077,4182.051282051283,4133.333333333335,4187.179487179489,4178.97435897436,4483.589743589745,4178.97435897436,4177.94871794872,4182.564102564104,4166.666666666668,4200.000000000002,4187.692307692309,4185.641025641027,862.0,2047.0,2026.0,0.0,0.0,0.0,0.0,0.0,0.0,0.0,0.0,0.0,0.0,0.0,0.0,0.0,0.0,0.0,0.0,0.0,0.0
127.0,0.0,4182.051282051283,4167.692307692309,4193.333333333335,4137.94871794872,4187.692307692309,4184.102564102565,4467.179487179488,4184.102564102565,4183.076923076925,4183.589743589745,4179.487179487181,4210.769230769232,4192.307692307694,4192.8205128205145,819.0,2047.0,2030.0,0.0,0.0,0.0,0.0,0.0,0.0,0.0,0.0,0.0,0.0,0.0,0.0,0.0,0.0,0.0,0.0,0.0,0.0
128.0,0.0,4195.384615384617,4175.897435897437,4204.615384615386,4146.153846153848,4188.20512820513,4187.179487179489,4456.923076923078,4190.769230769232,4188.20512820513,4188.20512820513,4190.769230769232,4220.512820512822,4201.0256410256425,4202.564102564104,854.0,2048.0,2031.0,0.0,0.0,0.0,0.0,4.0,0.0,0.0,0.0,0.0,0.0,0.0,0.0,0.0,0.0,0.0,0.0,4.0,4.0
0.0,0.0,4197.435897435899,4174.3589743589755,4204.102564102565,4142.564102564104,4185.641025641027,4183.589743589745,4496.410256410258,4189.23076923077,4184.615384615386,4187.692307692309,4184.102564102565,4216.923076923078,4198.97435897436,4201.0256410256425,836.0,2049.0,2031.0,0.0,0.0,0.0,0.0,4.0,0.0,0.0,0.0,0.0,0.0,0.0,0.0,0.0,0.0,0.0,0.0,4.0,4.0
1.0,0.0,4191.794871794873,4163.076923076925,4197.94871794872,4132.8205128205145,4189.743589743592,4189.23076923077,4414.871794871797,4189.23076923077,4180.512820512822,4185.128205128207,4175.384615384617,4212.307692307694,4188.71794871795,4193.333333333335,854.0,2048.0,2029.0,0.0,0.0,0.0,0.0,4.0,4.0,0.0,0.0,0.0,0.0,0.0,0.0,0.0,0.0,0.0,0.0,4.0,4.0
2.0,0.0,4184.615384615386,4158.46153846154,4195.384615384617,4129.743589743592,4188.20512820513,4198.46153846154,4218.46153846154,4188.20512820513,4177.94871794872,4184.102564102565,4174.3589743589755,4209.743589743592,4182.564102564104,4190.256410256412,838.0,2050.0,2030.0,0.0,0.0,4.0,0.0,4.0,4.0,0.0,0.0,0.0,0.0,0.0,0.0,0.0,0.0,0.0,0.0,4.0,4.0
3.0,0.0,4189.743589743592,4164.102564102565,4200.000000000002,4136.410256410258,4187.179487179489,4200.512820512822,4172.8205128205145,4189.743589743592,4184.615384615386,4186.666666666668,4187.179487179489,4216.923076923078,4194.871794871797,4200.000000000002,847.0,2049.0,2031.0,0.0,0.0,4.0,4.0,4.0,4.0,0.0,0.0,0.0,0.0,0.0,0.0,0.0,0.0,0.0,0.0,4.0,4.0
4.0,0.0,4195.384615384617,4162.051282051283,4199.487179487181,4133.333333333335,4187.692307692309,4198.46153846154,4273.846153846155,4197.435897435899,4194.3589743589755,4189.23076923077,4196.410256410258,4224.615384615386,4199.487179487181,4203.076923076925,0.0,2050.0,2032.0,0.0,0.0,4.0,4.0,4.0,4.0,0.0,0.0,0.0,0.0,0.0,0.0,0.0,0.0,0.0,0.0,4.0,4.0
5.0,0.0,4173.846153846155,4138.46153846154,4178.97435897436,4106.666666666668,4186.153846153848,4191.282051282053,4322.564102564104,4190.769230769232,4178.46153846154,4186.666666666668,4173.333333333335,4204.102564102565,4166.153846153848,4178.97435897436,637.0,2050.0,2032.0,0.0,0.0,4.0,4.0,4.0,4.0,0.0,4.0,0.0,0.0,0.0,0.0,0.0,0.0,0.0,0.0,4.0,4.0
6.0,0.0,4154.3589743589755,4122.564102564104,4165.641025641027,4090.7692307692323,4188.20512820513,4182.051282051283,4308.20512820513,4177.435897435899,4158.97435897436,4184.615384615386,4155.384615384617,4184.615384615386,4153.846153846155,4164.615384615386,809.0,2048.0,2036.0,0.0,0.0,4.0,4.0,4.0,4.0,0.0,4.0,4.0,0.0,0.0,0.0,0.0,0.0,0.0,0.0,4.0,4.0
7.0,0.0,4155.897435897437,4123.076923076925,4170.256410256412,4092.8205128205145,4186.153846153848,4176.923076923078,4298.97435897436,4176.923076923078,4164.615384615386,4184.102564102565,4163.589743589745,4187.692307692309,4171.794871794873,4172.307692307694,699.0,2048.0,2039.0,0.0,0.0,4.0,4.0,4.0,4.0,0.0,4.0,4.0,4.0,0.0,0.0,0.0,0.0,0.0,0.0,4.0,4.0
8.0,0.0,4153.333333333335,4116.410256410258,4168.20512820513,4080.0000000000014,4186.666666666668,4175.384615384617,4287.692307692309,4181.538461538463,4165.128205128207,4181.538461538463,4162.051282051283,4187.179487179489,4165.641025641027,4167.692307692309,754.0,2048.0,2041.0,0.0,0.0,4.0,4.0,4.0,4.0,0.0,4.0,4.0,4.0,4.0,0.0,0.0,0.0,0.0,0.0,4.0,4.0
9.0,0.0,4149.743589743592,4108.71794871795,4159.487179487181,4066.1538461538476,4189.743589743592,4172.8205128205145,4248.20512820513,4181.538461538463,4157.435897435899,4183.076923076925,4152.307692307694,4183.589743589745,4154.871794871797,4160.000000000002,158.0,2048.0,2045.0,0.0,0.0,4.0,4.0,4.0,4.0,0.0,4.0,4.0,4.0,4.0,2.0,0.0,0.0,0.0,0.0,4.0,4.0
10.0,0.0,4151.794871794873,4105.641025641027,4155.897435897437,4066.6666666666683,4184.102564102565,4164.102564102565,4208.71794871795,4176.923076923078,4158.46153846154,4182.564102564104,4152.307692307694,4182.051282051283,4162.564102564104,4160.512820512822,868.0,2048.0,2047.0,0.0,0.0,4.0,4.0,4.0,4.0,0.0,4.0,4.0,4.0,4.0,2.0,0.0,0.0,4.0,0.0,4.0,4.0
11.0,0.0,4144.102564102565,4099.487179487181,4155.384615384617,4061.0256410256425,4184.102564102565,4160.000000000002,4203.076923076925,4171.282051282053,4155.897435897437,4172.307692307694,4151.794871794873,4172.8205128205145,4154.871794871797,4154.871794871797,823.0,2045.0,2051.0,0.0,0.0,4.0,4.0,4.0,4.0,0.0,4.0,4.0,4.0,4.0,2.0,0.0,0.0,4.0,4.0,4.0,4.0
12.0,0.0,4145.128205128207,4097.94871794872,4157.435897435899,4055.8974358974374,4186.153846153848,4168.20512820513,4242.051282051283,4171.282051282053,4158.46153846154,4174.871794871797,4155.897435897437,4173.846153846155,4151.282051282053,4158.46153846154,854.0,2045.0,2051.0,0.0,0.0,4.0,4.0,4.0,4.0,0.0,4.0,4.0,4.0,4.0,2.0,4.0,0.0,4.0,4.0,4.0,4.0
13.0,0.0,4158.97435897436,4107.692307692309,4158.97435897436,4065.1282051282064,4187.692307692309,4169.743589743592,4276.410256410258,4168.71794871795,4164.615384615386,4185.128205128207,4162.564102564104,4186.153846153848,4166.153846153848,4169.23076923077,850.0,2042.0,2053.0,0.0,0.0,4.0,4.0,4.0,4.0,0.0,4.0,4.0,4.0,4.0,2.0,4.0,4.0,4.0,4.0,4.0,4.0
14.0,0.0,4145.128205128207,4097.94871794872,4145.641025641027,4052.8205128205145,4189.23076923077,4157.94871794872,4242.564102564104,4160.512820512822,4151.282051282053,4176.923076923078,4147.179487179489,4169.743589743592,4150.256410256412,4150.769230769232,868.0,2043.0,2055.0,0.0,0.0,4.0,4.0,4.0,4.0,0.0,4.0,4.0,4.0,4.0,2.0,4.0,4.0,4.0,4.0,4.0,4.0
15.0,0.0,4130.256410256412,4083.0769230769247,4131.794871794873,4033.846153846155,4183.589743589745,4155.897435897437,4167.692307692309,4157.435897435899,4136.410256410258,4166.666666666668,4133.333333333335,4148.71794871795,4133.846153846155,4134.871794871797,823.0,2044.0,2056.0,0.0,0.0,4.0,4.0,4.0,4.0,0.0,4.0,4.0,4.0,4.0,2.0,4.0,4.0,4.0,4.0,4.0,4.0
16.0,0.0,4148.20512820513,4095.384615384617,4140.000000000002,4045.641025641027,4182.564102564104,4167.179487179489,4089.743589743591,4158.97435897436,4141.538461538463,4171.794871794873,4138.97435897436,4162.051282051283,4153.846153846155,4152.307692307694,0.0,2044.0,2057.0,0.0,0.0,4.0,4.0,4.0,4.0,0.0,4.0,4.0,4.0,4.0,2.0,4.0,4.0,4.0,4.0,4.0,4.0
17.0,0.0,4157.94871794872,4100.000000000002,4150.256410256412,4052.3076923076937,4185.128205128207,4168.20512820513,4012.3076923076937,4158.46153846154,4145.641025641027,4172.8205128205145,4143.076923076925,4171.282051282053,4157.94871794872,4158.46153846154,0.0,2043.0,2056.0,0.0,0.0,4.0,4.0,4.0,4.0,0.0,4.0,4.0,4.0,4.0,2.0,4.0,4.0,4.0,4.0,4.0,4.0
18.0,0.0,4147.179487179489,4088.2051282051298,4147.692307692309,4044.102564102566,4188.20512820513,4164.615384615386,3966.1538461538476,4164.102564102565,4147.692307692309,4167.179487179489,4145.641025641027,4167.692307692309,4148.20512820513,4155.384615384617,0.0,2042.0,2055.0,0.0,0.0,4.0,4.0,4.0,4.0,0.0,4.0,4.0,4.0,4.0,2.0,4.0,4.0,4.0,4.0,4.0,4.0
19.0,0.0,4158.97435897436,4100.512820512822,4156.923076923078,4055.384615384617,4187.692307692309,4173.846153846155,3992.3076923076937,4173.846153846155,4157.94871794872,4172.8205128205145,4158.46153846154,4180.512820512822,4163.076923076925,4172.307692307694,0.0,2044.0,2056.0,0.0,0.0,4.0,4.0,4.0,4.0,0.0,4.0,4.0,4.0,4.0,2.0,4.0,4.0,4.0,4.0,4.0,4.0
20.0,0.0,4169.743589743592,4111.282051282053,4166.153846153848,4065.1282051282064,4182.051282051283,4179.487179487181,4013.846153846155,4175.897435897437,4161.0256410256425,4178.97435897436,4163.589743589745,4191.282051282053,4171.282051282053,4176.410256410258,0.0,2044.0,2056.0,0.0,0.0,4.0,4.0,4.0,4.0,0.0,4.0,4.0,4.0,4.0,2.0,4.0,4.0,4.0,4.0,4.0,4.0
21.0,0.0,4158.97435897436,4101.0256410256425,4158.97435897436,4052.8205128205145,4186.153846153848,4173.846153846155,4037.435897435899,4176.923076923078,4161.538461538463,4176.410256410258,4161.538461538463,4187.179487179489,4168.71794871795,4168.71794871795,0.0,2043.0,2055.0,0.0,0.0,4.0,4.0,4.0,4.0,0.0,4.0,4.0,4.0,4.0,2.0,4.0,4.0,4.0,4.0,4.0,4.0
22.0,0.0,4159.487179487181,4102.051282051283,4157.94871794872,4046.6666666666683,4187.692307692309,4165.641025641027,4055.8974358974374,4172.8205128205145,4156.923076923078,4171.282051282053,4156.410256410258,4184.615384615386,4165.641025641027,4172.307692307694,0.0,2043.0,2054.0,0.0,0.0,4.0,4.0,4.0,4.0,0.0,4.0,4.0,4.0,4.0,2.0,4.0,4.0,4.0,4.0,4.0,4.0
23.0,0.0,4162.564102564104,4105.641025641027,4165.641025641027,4048.71794871795,4186.666666666668,4166.666666666668,3973.846153846155,4165.641025641027,4144.615384615386,4167.692307692309,4144.615384615386,4184.615384615386,4148.20512820513,4167.692307692309,0.0,2044.0,2054.0,0.0,0.0,4.0,4.0,4.0,4.0,0.0,4.0,4.0,4.0,4.0,2.0,4.0,4.0,4.0,4.0,4.0,4.0
24.0,0.0,4165.641025641027,4102.564102564104,4173.333333333335,4055.384615384617,4188.71794871795,4177.94871794872,3956.4102564102577,4178.46153846154,4159.487179487181,4178.46153846154,4160.000000000002,4195.384615384617,4161.0256410256425,4167.692307692309,0.0,2045.0,2053.0,0.0,0.0,4.0,4.0,4.0,4.0,0.0,4.0,4.0,4.0,4.0,2.0,4.0,4.0,4.0,4.0,4.0,4.0
25.0,0.0,4172.8205128205145,4105.641025641027,4176.410256410258,4062.564102564104,4184.615384615386,4181.0256410256425,4063.0769230769247,4192.307692307694,4180.512820512822,4186.666666666668,4181.538461538463,4204.102564102565,4192.8205128205145,4178.97435897436,0.0,2045.0,2054.0,0.0,0.0,4.0,4.0,4.0,4.0,0.0,4.0,4.0,4.0,4.0,2.0,4.0,4.0,4.0,4.0,4.0,4.0
26.0,0.0,4162.564102564104,4099.487179487181,4164.615384615386,4047.692307692309,4186.666666666668,4173.846153846155,4155.384615384617,4184.102564102565,4167.692307692309,4174.3589743589755,4166.153846153848,4189.23076923077,4176.923076923078,4166.666666666668,0.0,2046.0,2051.0,0.0,0.0,4.0,4.0,4.0,4.0,0.0,4.0,4.0,4.0,4.0,2.0,4.0,4.0,4.0,4.0,4.0,4.0
27.0,0.0,4153.846153846155,4094.358974358976,4160.000000000002,4039.487179487181,4187.692307692309,4175.897435897437,4260.512820512822,4178.46153846154,4160.000000000002,4172.307692307694,4156.410256410258,4185.641025641027,4156.410256410258,4157.435897435899,0.0,2046.0,2050.0,0.0,0.0,4.0,4.0,4.0,4.0,0.0,4.0,4.0,4.0,4.0,2.0,4.0,4.0,4.0,4.0,4.0,4.0
28.0,0.0,4170.769230769232,4110.256410256412,4176.923076923078,4058.46153846154,4182.564102564104,4183.589743589745,4380.000000000002,4189.743589743592,4181.0256410256425,4184.615384615386,4180.000000000002,4206.153846153848,4179.487179487181,4176.410256410258,0.0,2047.0,2049.0,0.0,0.0,4.0,4.0,4.0,4.0,0.0,4.0,4.0,4.0,4.0,2.0,4.0,4.0,4.0,4.0,4.0,4.0
29.0,0.0,4170.256410256412,4109.23076923077,4174.871794871797,4056.9230769230785,4185.128205128207,4173.333333333335,4475.384615384617,4191.794871794873,4185.128205128207,4182.051282051283,4184.615384615386,4201.0256410256425,4185.128205128207,4174.871794871797,0.0,2047.0,2047.0,0.0,0.0,4.0,4.0,4.0,4.0,0.0,4.0,4.0,4.0,4.0,2.0,4.0,4.0,4.0,4.0,4.0,4.0
30.0,0.0,4147.179487179489,4085.1282051282064,4150.256410256412,4031.2820512820526,4185.128205128207,4161.0256410256425,4507.179487179488,4176.410256410258,4163.076923076925,4171.794871794873,4158.46153846154,4172.8205128205145,4161.0256410256425,4148.20512820513,0.0,2046.0,2044.0,0.0,0.0,4.0,4.0,4.0,4.0,0.0,4.0,4.0,4.0,4.0,2.0,4.0,4.0,4.0,4.0,4.0,4.0
31.0,0.0,4144.102564102565,4082.564102564104,4147.179487179489,4031.2820512820526,4185.641025641027,4168.71794871795,4414.871794871797,4172.307692307694,4155.384615384617,4173.333333333335,4151.794871794873,4170.256410256412,4160.512820512822,4145.641025641027,0.0,2046.0,2042.0,0.0,0.0,4.0,4.0,4.0,4.0,0.0,4.0,4.0,4.0,4.0,2.0,4.0,4.0,4.0,4.0,4.0,4.0
32.0,0.0,4153.333333333335,4092.8205128205145,4156.410256410258,4048.71794871795,4186.666666666668,4178.97435897436,4361.0256410256425,4181.538461538463,4163.589743589745,4176.923076923078,4164.615384615386,4184.615384615386,4171.282051282053,4159.487179487181,0.0,2046.0,2041.0,0.0,0.0,4.0,4.0,4.0,4.0,0.0,4.0,4.0,4.0,4.0,2.0,4.0,4.0,4.0,4.0,4.0,4.0
33.0,0.0,4158.46153846154,4094.358974358976,4160.512820512822,4054.358974358976,4183.076923076925,4180.512820512822,4501.538461538463,4186.153846153848,4172.307692307694,4176.923076923078,4171.282051282053,4191.794871794873,4172.8205128205145,4165.641025641027,0.0,2048.0,2039.0,0.0,0.0,4.0,4.0,4.0,4.0,0.0,4.0,4.0,4.0,4.0,2.0,4.0,4.0,4.0,4.0,4.0,4.0
34.0,0.0,4164.102564102565,4097.435897435899,4168.20512820513,4056.9230769230785,4184.615384615386,4183.589743589745,4529.743589743592,4186.153846153848,4174.3589743589755,4178.46153846154,4170.769230769232,4193.846153846155,4171.794871794873,4167.692307692309,0.0,2048.0,2038.0,0.0,0.0,4.0,4.0,4.0,4.0,0.0,4.0,4.0,4.0,4.0,2.0,4.0,4.0,4.0,4.0,4.0,4.0
35.0,0.0,4167.692307692309,4102.051282051283,4173.846153846155,4060.0000000000014,4186.153846153848,4186.153846153848,4403.589743589745,4193.333333333335,4169.743589743592,4178.97435897436,4168.20512820513,4196.410256410258,4170.769230769232,4168.71794871795,0.0,2048.0,2036.0,0.0,0.0,4.0,4.0,4.0,4.0,0.0,4.0,4.0,4.0,4.0,2.0,4.0,4.0,4.0,4.0,4.0,4.0
36.0,0.0,4170.256410256412,4106.153846153848,4175.384615384617,4063.589743589745,4186.153846153848,4186.666666666668,4473.333333333335,4202.051282051283,4173.846153846155,4180.512820512822,4172.307692307694,4200.512820512822,4174.871794871797,4169.743589743592,0.0,2047.0,2037.0,0.0,0.0,4.0,4.0,4.0,4.0,0.0,4.0,4.0,4.0,4.0,2.0,4.0,4.0,4.0,4.0,4.0,4.0
37.0,0.0,4164.102564102565,4101.0256410256425,4174.871794871797,4064.102564102566,4186.666666666668,4183.076923076925,4588.71794871795,4193.846153846155,4174.871794871797,4181.538461538463,4171.794871794873,4196.923076923078,4173.846153846155,4164.615384615386,0.0,2049.0,2037.0,0.0,0.0,4.0,4.0,4.0,4.0,0.0,4.0,4.0,4.0,4.0,2.0,4.0,4.0,4.0,4.0,4.0,4.0
38.0,0.0,4157.94871794872,4094.8717948717963,4170.769230769232,4059.487179487181,4187.692307692309,4180.000000000002,4517.435897435899,4184.102564102565,4167.692307692309,4177.435897435899,4165.641025641027,4192.8205128205145,4165.641025641027,4161.538461538463,0.0,2047.0,2038.0,0.0,0.0,4.0,4.0,4.0,4.0,0.0,4.0,4.0,4.0,4.0,2.0,4.0,4.0,4.0,4.0,4.0,4.0
39.0,0.0,4161.0256410256425,4100.512820512822,4169.743589743592,4058.46153846154,4191.794871794873,4183.076923076925,4364.102564102565,4186.666666666668,4167.692307692309,4177.435897435899,4166.153846153848,4195.384615384617,4166.666666666668,4166.153846153848,0.0,2046.0,2043.0,0.0,0.0,4.0,4.0,4.0,4.0,0.0,4.0,4.0,4.0,4.0,2.0,4.0,4.0,4.0,4.0,4.0,4.0
40.0,0.0,4166.666666666668,4107.692307692309,4175.384615384617,4065.641025641027,4187.179487179489,4184.102564102565,4190.769230769232,4185.128205128207,4168.20512820513,4181.538461538463,4167.692307692309,4201.538461538463,4175.384615384617,4171.282051282053,0.0,2047.0,2044.0,0.0,0.0,4.0,4.0,4.0,4.0,0.0,4.0,4.0,4.0,4.0,2.0,4.0,4.0,4.0,4.0,4.0,4.0
41.0,0.0,4169.23076923077,4106.153846153848,4181.0256410256425,4072.3076923076937,4184.102564102565,4183.589743589745,4162.051282051283,4180.512820512822,4167.692307692309,4178.97435897436,4166.666666666668,4203.589743589745,4176.410256410258,4173.333333333335,0.0,2047.0,2044.0,0.0,0.0,4.0,4.0,4.0,4.0,0.0,4.0,4.0,4.0,4.0,2.0,4.0,4.0,4.0,4.0,4.0,4.0
42.0,0.0,4173.333333333335,4105.128205128207,4185.128205128207,4074.358974358976,4188.20512820513,4190.256410256412,4352.307692307694,4186.153846153848,4170.256410256412,4174.871794871797,4173.333333333335,4208.71794871795,4174.3589743589755,4175.384615384617,0.0,2046.0,2048.0,0.0,0.0,4.0,4.0,4.0,4.0,0.0,4.0,4.0,4.0,4.0,2.0,4.0,4.0,4.0,4.0,4.0,4.0
43.0,0.0,4175.384615384617,4107.692307692309,4188.71794871795,4073.333333333335,4189.23076923077,4194.3589743589755,4406.666666666668,4192.307692307694,4174.3589743589755,4181.0256410256425,4181.538461538463,4213.846153846155,4177.94871794872,4176.410256410258,0.0,2046.0,2049.0,0.0,0.0,4.0,4.0,4.0,4.0,0.0,4.0,4.0,4.0,4.0,2.0,4.0,4.0,4.0,4.0,4.0,4.0
44.0,0.0,4169.743589743592,4104.102564102565,4180.512820512822,4068.71794871795,4189.23076923077,4188.71794871795,4226.666666666668,4186.666666666668,4169.743589743592,4181.0256410256425,4174.871794871797,4206.153846153848,4175.897435897437,4167.692307692309,0.0,2045.0,2050.0,0.0,0.0,4.0,4.0,4.0,4.0,0.0,4.0,4.0,4.0,4.0,2.0,4.0,4.0,4.0,4.0,4.0,4.0
45.0,0.0,4168.71794871795,4101.0256410256425,4170.769230769232,4065.1282051282064,4184.615384615386,4186.153846153848,4128.20512820513,4181.538461538463,4164.102564102565,4172.307692307694,4163.589743589745,4198.97435897436,4167.692307692309,4163.589743589745,0.0,2045.0,2048.0,0.0,0.0,4.0,4.0,4.0,4.0,0.0,4.0,4.0,4.0,4.0,2.0,4.0,4.0,4.0,4.0,4.0,4.0
46.0,0.0,4176.410256410258,4106.153846153848,4175.384615384617,4070.256410256412,4183.076923076925,4191.282051282053,4152.307692307694,4186.153846153848,4173.333333333335,4180.512820512822,4172.307692307694,4208.20512820513,4169.23076923077,4170.769230769232,0.0,2042.0,2047.0,0.0,0.0,4.0,4.0,4.0,4.0,0.0,4.0,4.0,4.0,4.0,2.0,4.0,4.0,4.0,4.0,4.0,4.0
47.0,0.0,4183.589743589745,4113.333333333335,4186.153846153848,4081.0256410256425,4187.692307692309,4193.846153846155,4170.256410256412,4191.794871794873,4185.641025641027,4188.20512820513,4186.153846153848,4216.923076923078,4176.410256410258,4176.923076923078,0.0,2042.0,2046.0,0.0,0.0,4.0,4.0,4.0,4.0,0.0,4.0,4.0,4.0,4.0,2.0,4.0,4.0,4.0,4.0,4.0,4.0
48.0,0.0,4191.794871794873,4124.102564102565,4196.410256410258,4091.2820512820526,4187.692307692309,4196.923076923078,4164.615384615386,4198.97435897436,4190.256410256412,4181.538461538463,4189.23076923077,4225.128205128207,4184.615384615386,4183.076923076925,0.0,2042.0,2043.0,0.0,0.0,4.0,4.0,4.0,4.0,0.0,4.0,4.0,4.0,4.0,2.0,4.0,4.0,4.0,4.0,4.0,4.0
49.0,0.0,4195.897435897437,4128.71794871795,4198.97435897436,4094.358974358976,4187.179487179489,4204.102564102565,4099.487179487181,4201.538461538463,4187.179487179489,4183.589743589745,4186.153846153848,4231.794871794873,4185.641025641027,4187.179487179489,0.0,2042.0,2041.0,0.0,0.0,4.0,4.0,4.0,4.0,0.0,4.0,4.0,4.0,4.0,2.0,4.0,4.0,4.0,4.0,4.0,4.0
50.0,0.0,4180.000000000002,4114.871794871797,4181.0256410256425,4077.9487179487196,4182.051282051283,4201.0256410256425,4086.1538461538476,4188.20512820513,4174.871794871797,4181.0256410256425,4171.794871794873,4216.410256410258,4167.179487179489,4172.8205128205145,0.0,2044.0,2041.0,0.0,0.0,4.0,4.0,4.0,4.0,0.0,4.0,4.0,4.0,4.0,2.0,4.0,4.0,4.0,4.0,4.0,4.0
51.0,0.0,4161.538461538463,4101.538461538463,4162.051282051283,4065.1282051282064,4181.538461538463,4191.794871794873,4220.512820512822,4179.487179487181,4164.615384615386,4168.20512820513,4162.564102564104,4193.846153846155,4150.769230769232,4158.46153846154,0.0,2041.0,2040.0,0.0,0.0,4.0,4.0,4.0,4.0,0.0,4.0,4.0,4.0,4.0,2.0,4.0,4.0,4.0,4.0,4.0,4.0
52.0,0.0,4165.641025641027,4106.153846153848,4168.20512820513,4072.8205128205145,4187.179487179489,4194.871794871797,4298.97435897436,4186.666666666668,4170.769230769232,4170.769230769232,4170.256410256412,4200.000000000002,4155.384615384617,4167.692307692309,0.0,2041.0,2040.0,0.0,0.0,4.0,4.0,4.0,4.0,0.0,4.0,4.0,4.0,4.0,2.0,4.0,4.0,4.0,4.0,4.0,4.0
53.0,0.0,4174.871794871797,4113.333333333335,4177.435897435899,4076.4102564102577,4182.564102564104,4196.410256410258,4270.256410256412,4185.641025641027,4176.923076923078,4181.0256410256425,4172.307692307694,4210.769230769232,4160.000000000002,4171.282051282053,0.0,2041.0,2039.0,0.0,0.0,4.0,4.0,4.0,4.0,0.0,4.0,4.0,4.0,4.0,2.0,4.0,4.0,4.0,4.0,4.0,4.0
54.0,0.0,4182.564102564104,4120.512820512822,4182.564102564104,4078.9743589743603,4183.076923076925,4194.871794871797,4298.46153846154,4186.153846153848,4179.487179487181,4183.076923076925,4173.846153846155,4213.846153846155,4166.153846153848,4171.794871794873,0.0,2042.0,2037.0,0.0,0.0,4.0,4.0,4.0,4.0,0.0,4.0,4.0,4.0,4.0,2.0,4.0,4.0,4.0,4.0,4.0,4.0
55.0,0.0,4190.769230769232,4126.666666666668,4193.333333333335,4092.8205128205145,4186.153846153848,4195.897435897437,4254.871794871797,4196.923076923078,4185.641025641027,4183.589743589745,4185.128205128207,4224.102564102565,4173.333333333335,4187.179487179489,0.0,2044.0,2036.0,0.0,0.0,4.0,4.0,4.0,4.0,0.0,4.0,4.0,4.0,4.0,2.0,4.0,4.0,4.0,4.0,4.0,4.0
56.0,0.0,4185.641025641027,4124.102564102565,4191.282051282053,4094.8717948717963,4183.589743589745,4193.333333333335,4120.000000000002,4195.384615384617,4185.128205128207,4184.102564102565,4185.641025641027,4224.615384615386,4163.589743589745,4189.743589743592,0.0,2043.0,2036.0,0.0,0.0,4.0,4.0,4.0,4.0,0.0,4.0,4.0,4.0,4.0,2.0,4.0,4.0,4.0,4.0,4.0,4.0
57.0,0.0,4180.000000000002,4118.46153846154,4184.102564102565,4083.0769230769247,4184.615384615386,4191.282051282053,4105.128205128207,4185.128205128207,4181.0256410256425,4182.051282051283,4174.3589743589755,4215.897435897437,4151.282051282053,4176.410256410258,0.0,2043.0,2033.0,0.0,0.0,4.0,4.0,4.0,4.0,0.0,4.0,4.0,4.0,4.0,2.0,4.0,4.0,4.0,4.0,4.0,4.0
58.0,0.0,4183.589743589745,4118.46153846154,4185.641025641027,4084.102564102566,4182.564102564104,4191.794871794873,4110.769230769232,4182.051282051283,4178.97435897436,4182.564102564104,4169.743589743592,4214.3589743589755,4151.794871794873,4173.846153846155,0.0,2042.0,2033.0,0.0,0.0,4.0,4.0,4.0,4.0,0.0,4.0,4.0,4.0,4.0,2.0,4.0,4.0,4.0,4.0,4.0,4.0
59.0,0.0,4186.666666666668,4121.538461538463,4190.256410256412,4093.846153846155,4182.051282051283,4194.871794871797,3999.487179487181,4189.23076923077,4179.487179487181,4183.589743589745,4176.923076923078,4218.46153846154,4153.846153846155,4183.589743589745,0.0,2043.0,2034.0,0.0,0.0,4.0,4.0,4.0,4.0,0.0,4.0,4.0,4.0,4.0,2.0,4.0,4.0,4.0,4.0,4.0,4.0
60.0,0.0,4188.20512820513,4124.615384615386,4191.794871794873,4093.333333333335,4182.051282051283,4196.923076923078,3940.0000000000014,4198.46153846154,4183.589743589745,4183.589743589745,4184.102564102565,4223.589743589745,4151.794871794873,4188.71794871795,0.0,2044.0,2035.0,0.0,0.0,4.0,4.0,4.0,4.0,0.0,4.0,4.0,4.0,4.0,2.0,4.0,4.0,4.0,4.0,4.0,4.0
61.0,0.0,4186.153846153848,4123.076923076925,4187.692307692309,4087.692307692309,4181.538461538463,4194.871794871797,4044.615384615386,4194.871794871797,4184.102564102565,4183.589743589745,4183.076923076925,4222.051282051283,4152.307692307694,4186.153846153848,0.0,2044.0,2036.0,0.0,0.0,4.0,4.0,4.0,4.0,0.0,4.0,4.0,4.0,4.0,2.0,4.0,4.0,4.0,4.0,4.0,4.0
62.0,0.0,4185.641025641027,4123.589743589745,4186.666666666668,4090.256410256412,4183.589743589745,4193.333333333335,4174.871794871797,4190.256410256412,4184.615384615386,4185.641025641027,4183.589743589745,4218.97435897436,4153.846153846155,4185.128205128207,0.0,2043.0,2035.0,0.0,0.0,4.0,4.0,4.0,4.0,0.0,4.0,4.0,4.0,4.0,2.0,4.0,4.0,4.0,4.0,4.0,4.0
63.0,0.0,4186.153846153848,4125.128205128207,4188.20512820513,4091.7948717948734,4180.000000000002,4191.282051282053,4176.410256410258,4190.256410256412,4183.589743589745,4185.641025641027,4185.128205128207,4219.487179487181,4148.20512820513,4186.153846153848,0.0,2044.0,2035.0,0.0,0.0,4.0,4.0,4.0,4.0,0.0,4.0,4.0,4.0,4.0,2.0,4.0,4.0,4.0,4.0,4.0,4.0
64.0,0.0,4177.94871794872,4112.8205128205145,4179.487179487181,4080.0000000000014,4182.564102564104,4188.71794871795,4067.1794871794887,4186.153846153848,4175.384615384617,4181.538461538463,4174.3589743589755,4213.846153846155,4133.333333333335,4176.410256410258,836.0,2044.0,2035.0,0.0,0.0,4.0,4.0,4.0,4.0,0.0,4.0,4.0,4.0,4.0,2.0,4.0,4.0,4.0,4.0,4.0,4.0
65.0,0.0,4165.641025641027,4096.923076923078,4165.641025641027,4069.743589743591,4187.692307692309,4188.20512820513,4020.512820512822,4178.97435897436,4164.102564102565,4172.307692307694,4158.97435897436,4199.487179487181,4117.94871794872,4159.487179487181,854.0,2045.0,2034.0,0.0,0.0,4.0,4.0,4.0,4.0,0.0,4.0,4.0,4.0,4.0,2.0,4.0,4.0,4.0,4.0,4.0,4.0
66.0,0.0,4164.102564102565,4093.846153846155,4164.102564102565,4071.2820512820526,4183.589743589745,4191.282051282053,4098.46153846154,4180.512820512822,4163.076923076925,4167.692307692309,4157.94871794872,4195.897435897437,4111.794871794873,4154.871794871797,838.0,2044.0,2034.0,0.0,0.0,4.0,4.0,4.0,4.0,0.0,4.0,4.0,4.0,4.0,2.0,4.0,4.0,4.0,4.0,4.0,4.0
67.0,0.0,4164.615384615386,4096.410256410258,4172.307692307694,4072.8205128205145,4182.051282051283,4192.307692307694,4108.20512820513,4188.20512820513,4167.692307692309,4174.871794871797,4164.615384615386,4203.076923076925,4113.846153846155,4160.000000000002,847.0,2044.0,2034.0,0.0,0.0,4.0,4.0,4.0,4.0,0.0,4.0,4.0,4.0,4.0,2.0,4.0,4.0,4.0,4.0,4.0,4.0
68.0,0.0,4177.435897435899,4112.8205128205145,4186.666666666668,4087.1794871794887,4180.512820512822,4194.871794871797,4034.8717948717963,4198.97435897436,4176.410256410258,4185.128205128207,4178.97435897436,4219.487179487181,4133.333333333335,4177.435897435899,0.0,2043.0,2038.0,0.0,0.0,4.0,4.0,4.0,4.0,0.0,4.0,4.0,4.0,4.0,2.0,4.0,4.0,4.0,4.0,4.0,4.0
69.0,0.0,4203.589743589745,4136.923076923078,4204.615384615386,4110.769230769232,4182.051282051283,4205.641025641027,4073.333333333335,4213.846153846155,4195.897435897437,4187.179487179489,4199.487179487181,4240.000000000002,4158.97435897436,4201.0256410256425,637.0,2045.0,2039.0,0.0,0.0,4.0,4.0,4.0,4.0,0.0,4.0,4.0,4.0,4.0,2.0,4.0,4.0,4.0,4.0,4.0,4.0
70.0,0.0,4200.512820512822,4128.71794871795,4203.076923076925,4104.615384615386,4184.615384615386,4205.128205128207,4151.282051282053,4214.3589743589755,4205.128205128207,4185.128205128207,4204.102564102565,4240.512820512822,4151.282051282053,4198.46153846154,805.0,2046.0,2042.0,0.0,0.0,4.0,4.0,4.0,4.0,0.0,4.0,4.0,4.0,4.0,2.0,4.0,4.0,4.0,4.0,4.0,4.0
71.0,0.0,4185.128205128207,4114.871794871797,4192.8205128205145,4091.7948717948734,4183.076923076925,4198.97435897436,4146.153846153848,4202.051282051283,4195.384615384617,4185.128205128207,4193.333333333335,4228.20512820513,4134.871794871797,4184.615384615386,701.0,2045.0,2043.0,0.0,0.0,4.0,4.0,4.0,4.0,0.0,4.0,4.0,4.0,4.0,2.0,4.0,4.0,4.0,4.0,4.0,4.0
72.0,0.0,4202.051282051283,4140.000000000002,4198.97435897436,4105.641025641027,4184.615384615386,4202.051282051283,4131.794871794873,4200.512820512822,4193.846153846155,4185.128205128207,4195.384615384617,4230.769230769232,4151.282051282053,4197.94871794872,754.0,2044.0,2044.0,0.0,0.0,4.0,4.0,4.0,4.0,0.0,4.0,4.0,4.0,4.0,2.0,4.0,4.0,4.0,4.0,4.0,4.0
73.0,0.0,4223.076923076925,4164.615384615386,4207.692307692309,4116.410256410258,4181.538461538463,4202.051282051283,4120.000000000002,4197.435897435899,4198.46153846154,4184.615384615386,4201.0256410256425,4243.076923076925,4164.615384615386,4218.46153846154,158.0,2044.0,2043.0,0.0,0.0,4.0,4.0,4.0,4.0,0.0,4.0,4.0,4.0,4.0,2.0,4.0,4.0,4.0,4.0,4.0,4.0
74.0,0.0,4215.384615384617,4152.8205128205145,4206.153846153848,4107.692307692309,4180.512820512822,4197.435897435899,4090.256410256412,4183.076923076925,4189.23076923077,4184.615384615386,4187.692307692309,4244.102564102565,4150.256410256412,4212.307692307694,868.0,2045.0,2045.0,0.0,0.0,4.0,4.0,4.0,4.0,0.0,4.0,4.0,4.0,4.0,2.0,4.0,4.0,4.0,4.0,4.0,4.0
75.0,0.0,4213.333333333335,4150.256410256412,4212.307692307694,4110.769230769232,4184.102564102565,4202.564102564104,4112.8205128205145,4183.076923076925,4186.666666666668,4183.589743589745,4185.128205128207,4243.589743589745,4156.923076923078,4213.333333333335,825.0,2044.0,2046.0,0.0,0.0,4.0,4.0,4.0,4.0,0.0,4.0,4.0,4.0,4.0,2.0,4.0,4.0,4.0,4.0,4.0,4.0
76.0,0.0,4227.692307692309,4166.666666666668,4223.589743589745,4126.666666666668,4182.051282051283,4212.307692307694,4163.589743589745,4199.487179487181,4201.0256410256425,4184.102564102565,4203.076923076925,4250.769230769232,4176.410256410258,4229.23076923077,854.0,2044.0,2044.0,0.0,0.0,4.0,4.0,4.0,4.0,0.0,4.0,4.0,4.0,4.0,2.0,4.0,4.0,4.0,4.0,4.0,4.0
77.0,0.0,4220.512820512822,4161.0256410256425,4215.897435897437,4123.589743589745,4182.564102564104,4208.71794871795,4193.333333333335,4204.615384615386,4200.000000000002,4185.128205128207,4200.512820512822,4247.179487179489,4161.0256410256425,4218.97435897436,850.0,2046.0,2046.0,0.0,0.0,4.0,4.0,4.0,4.0,0.0,4.0,4.0,4.0,4.0,2.0,4.0,4.0,4.0,4.0,4.0,4.0
78.0,0.0,4203.076923076925,4142.564102564104,4201.0256410256425,4110.769230769232,4182.051282051283,4198.46153846154,4215.384615384617,4198.46153846154,4189.23076923077,4184.102564102565,4186.666666666668,4233.333333333335,4146.666666666668,4198.46153846154,868.0,2046.0,2048.0,0.0,0.0,4.0,4.0,4.0,4.0,0.0,4.0,4.0,4.0,4.0,2.0,4.0,4.0,4.0,4.0,4.0,4.0
79.0,0.0,4195.897435897437,4137.94871794872,4192.8205128205145,4104.615384615386,4180.000000000002,4195.897435897437,4204.102564102565,4191.794871794873,4187.692307692309,4183.076923076925,4187.179487179489,4226.153846153848,4153.333333333335,4195.384615384617,825.0,2044.0,2045.0,0.0,0.0,4.0,4.0,4.0,4.0,0.0,4.0,4.0,4.0,4.0,2.0,4.0,4.0,4.0,4.0,4.0,4.0
80.0,0.0,4188.71794871795,4134.871794871797,4186.666666666668,4104.615384615386,4181.538461538463,4194.3589743589755,4227.692307692309,4184.615384615386,4183.076923076925,4182.051282051283,4184.615384615386,4223.076923076925,4144.102564102565,4196.923076923078,854.0,2044.0,2045.0,0.0,0.0,4.0,4.0,4.0,4.0,0.0,4.0,4.0,4.0,4.0,2.0,4.0,4.0,4.0,4.0,4.0,4.0
81.0,0.0,4193.333333333335,4134.3589743589755,4190.769230769232,4113.333333333335,4181.538461538463,4195.897435897437,4313.333333333335,4190.256410256412,4189.23076923077,4183.589743589745,4185.641025641027,4227.692307692309,4135.384615384617,4198.46153846154,850.0,2044.0,2044.0,0.0,0.0,4.0,4.0,4.0,4.0,0.0,4.0,4.0,4.0,4.0,2.0,4.0,4.0,4.0,4.0,4.0,4.0
82.0,0.0,4212.307692307694,4150.769230769232,4210.769230769232,4127.179487179489,4183.076923076925,4211.282051282053,4314.3589743589755,4206.153846153848,4209.743589743592,4186.153846153848,4204.102564102565,4245.641025641027,4151.282051282053,4214.3589743589755,868.0,2043.0,2042.0,0.0,0.0,4.0,4.0,4.0,4.0,0.0,4.0,4.0,4.0,4.0,2.0,4.0,4.0,4.0,4.0,4.0,4.0
83.0,0.0,4217.435897435899,4157.435897435899,4222.564102564104,4128.20512820513,4181.0256410256425,4221.0256410256425,4254.871794871797,4205.641025641027,4212.307692307694,4185.641025641027,4210.769230769232,4252.307692307694,4162.564102564104,4222.051282051283,825.0,2043.0,2042.0,0.0,0.0,4.0,4.0,4.0,4.0,0.0,4.0,4.0,4.0,4.0,2.0,4.0,4.0,4.0,4.0,4.0,4.0
84.0,0.0,4203.589743589745,4143.076923076925,4212.8205128205145,4122.051282051283,4179.487179487181,4213.846153846155,4261.0256410256425,4194.3589743589755,4194.871794871797,4183.589743589745,4194.3589743589755,4241.538461538463,4151.794871794873,4206.153846153848,854.0,2044.0,2044.0,0.0,0.0,4.0,4.0,4.0,4.0,0.0,4.0,4.0,4.0,4.0,2.0,4.0,4.0,4.0,4.0,4.0,4.0
85.0,0.0,4196.410256410258,4140.000000000002,4201.0256410256425,4122.564102564104,4180.512820512822,4213.333333333335,4315.897435897437,4195.897435897437,4186.153846153848,4184.615384615386,4187.179487179489,4233.846153846155,4143.076923076925,4200.000000000002,850.0,2044.0,2046.0,0.0,0.0,4.0,4.0,4.0,4.0,0.0,4.0,4.0,4.0,4.0,2.0,4.0,4.0,4.0,4.0,4.0,4.0
86.0,0.0,4192.8205128205145,4142.051282051283,4193.846153846155,4117.435897435899,4176.923076923078,4215.384615384617,4312.307692307694,4195.384615384617,4188.20512820513,4185.128205128207,4188.20512820513,4228.20512820513,4142.051282051283,4206.153846153848,868.0,2044.0,2047.0,0.0,0.0,4.0,4.0,4.0,4.0,0.0,4.0,4.0,4.0,4.0,2.0,4.0,4.0,4.0,4.0,4.0,4.0
87.0,0.0,4176.410256410258,4126.153846153848,4180.000000000002,4100.000000000002,4180.512820512822,4206.666666666668,4223.076923076925,4177.94871794872,4182.051282051283,4183.589743589745,4176.923076923078,4212.8205128205145,4138.97435897436,4194.3589743589755,825.0,2043.0,2049.0,0.0,0.0,4.0,4.0,4.0,4.0,0.0,4.0,4.0,4.0,4.0,2.0,4.0,4.0,4.0,4.0,4.0,4.0
88.0,0.0,4170.256410256412,4116.923076923078,4170.769230769232,4095.8974358974374,4185.128205128207,4196.923076923078,4148.71794871795,4166.153846153848,4170.256410256412,4185.128205128207,4166.666666666668,4203.076923076925,4135.384615384617,4184.102564102565,854.0,2045.0,2050.0,0.0,0.0,4.0,4.0,4.0,4.0,0.0,4.0,4.0,4.0,4.0,2.0,4.0,4.0,4.0,4.0,4.0,4.0
89.0,0.0,4182.564102564104,4128.20512820513,4180.000000000002,4106.153846153848,4182.564102564104,4197.94871794872,4127.692307692309,4172.8205128205145,4169.743589743592,4182.564102564104,4171.794871794873,4209.23076923077,4140.512820512822,4193.333333333335,850.0,2044.0,2052.0,0.0,0.0,4.0,4.0,4.0,4.0,0.0,4.0,4.0,4.0,4.0,2.0,4.0,4.0,4.0,4.0,4.0,4.0
90.0,0.0,4179.487179487181,4125.128205128207,4177.94871794872,4103.589743589745,4180.512820512822,4195.897435897437,4050.7692307692323,4169.23076923077,4169.23076923077,4174.3589743589755,4168.20512820513,4203.076923076925,4136.923076923078,4189.23076923077,868.0,2044.0,2053.0,0.0,0.0,4.0,4.0,4.0,4.0,0.0,4.0,4.0,4.0,4.0,2.0,4.0,4.0,4.0,4.0,4.0,4.0
91.0,0.0,4156.923076923078,4105.641025641027,4156.410256410258,4084.615384615386,4178.97435897436,4187.692307692309,3950.256410256412,4153.846153846155,4155.384615384617,4168.71794871795,4149.743589743592,4180.000000000002,4118.46153846154,4169.23076923077,825.0,2043.0,2054.0,0.0,0.0,4.0,4.0,4.0,4.0,0.0,4.0,4.0,4.0,4.0,2.0,4.0,4.0,4.0,4.0,4.0,4.0
92.0,0.0,4147.179487179489,4098.46153846154,4147.179487179489,4074.8717948717963,4184.102564102565,4186.153846153848,3941.5384615384633,4153.333333333335,4147.692307692309,4169.23076923077,4145.128205128207,4173.333333333335,4111.794871794873,4162.051282051283,854.0,2042.0,2055.0,0.0,0.0,4.0,4.0,4.0,4.0,0.0,4.0,4.0,4.0,4.0,2.0,4.0,4.0,4.0,4.0,4.0,4.0
93.0,0.0,4157.94871794872,4104.102564102565,4153.846153846155,4084.615384615386,4181.538461538463,4186.666666666668,3968.2051282051298,4155.897435897437,4153.333333333335,4174.3589743589755,4151.794871794873,4184.615384615386,4121.0256410256425,4169.23076923077,850.0,2040.0,2055.0,0.0,0.0,4.0,4.0,4.0,4.0,0.0,4.0,4.0,4.0,4.0,2.0,4.0,4.0,4.0,4.0,4.0,4.0
94.0,0.0,4166.666666666668,4105.128205128207,4160.000000000002,4094.8717948717963,4175.897435897437,4181.538461538463,3982.564102564104,4154.3589743589755,4154.3589743589755,4181.538461538463,4151.794871794873,4187.179487179489,4124.615384615386,4177.94871794872,868.0,2041.0,2053.0,0.0,0.0,4.0,4.0,4.0,4.0,0.0,4.0,4.0,4.0,4.0,2.0,4.0,4.0,4.0,4.0,4.0,4.0
95.0,0.0,4168.20512820513,4104.102564102565,4165.641025641027,4097.435897435899,4181.538461538463,4177.94871794872,3958.46153846154,4155.384615384617,4151.794871794873,4184.102564102565,4149.23076923077,4187.179487179489,4120.512820512822,4182.051282051283,825.0,2042.0,2050.0,0.0,0.0,4.0,4.0,4.0,4.0,0.0,4.0,4.0,4.0,4.0,2.0,4.0,4.0,4.0,4.0,4.0,4.0
96.0,0.0,4173.333333333335,4111.794871794873,4171.282051282053,4100.512820512822,4181.0256410256425,4178.97435897436,3847.1794871794887,4153.846153846155,4151.282051282053,4182.564102564104,4150.256410256412,4195.897435897437,4124.615384615386,4183.589743589745,854.0,2043.0,2049.0,0.0,0.0,4.0,4.0,4.0,4.0,0.0,4.0,4.0,4.0,4.0,2.0,4.0,4.0,4.0,4.0,4.0,4.0
97.0,0.0,4180.000000000002,4120.512820512822,4172.8205128205145,4112.307692307694,4180.000000000002,4184.615384615386,3778.9743589743607,4159.487179487181,4158.97435897436,4184.615384615386,4159.487179487181,4203.076923076925,4136.923076923078,4190.769230769232,850.0,2043.0,2045.0,0.0,0.0,4.0,4.0,4.0,4.0,0.0,4.0,4.0,4.0,4.0,2.0,4.0,4.0,4.0,4.0,4.0,4.0
98.0,0.0,4185.641025641027,4126.666666666668,4177.435897435899,4126.153846153848,4181.0256410256425,4188.71794871795,3846.1538461538476,4174.3589743589755,4172.8205128205145,4186.666666666668,4173.333333333335,4205.641025641027,4146.153846153848,4203.589743589745,868.0,2044.0,2045.0,0.0,0.0,4.0,4.0,4.0,4.0,0.0,4.0,4.0,4.0,4.0,2.0,4.0,4.0,4.0,4.0,4.0,4.0
99.0,0.0,4182.051282051283,4122.564102564104,4175.897435897437,4118.46153846154,4179.487179487181,4184.615384615386,3903.0769230769247,4170.256410256412,4172.8205128205145,4185.641025641027,4169.743589743592,4202.051282051283,4141.538461538463,4201.0256410256425,825.0,2045.0,2044.0,0.0,0.0,4.0,4.0,4.0,4.0,0.0,4.0,4.0,4.0,4.0,2.0,4.0,4.0,4.0,4.0,4.0,4.0
100.0,0.0,4173.846153846155,4116.410256410258,4167.692307692309,4106.666666666668,4182.564102564104,4186.153846153848,3904.615384615386,4159.487179487181,4165.128205128207,4184.615384615386,4161.538461538463,4197.435897435899,4134.871794871797,4192.307692307694,854.0,2045.0,2044.0,0.0,0.0,4.0,4.0,4.0,4.0,0.0,4.0,4.0,4.0,4.0,2.0,4.0,4.0,4.0,4.0,4.0,4.0
101.0,0.0,4177.94871794872,4122.051282051283,4171.794871794873,4116.410256410258,4182.564102564104,4193.333333333335,3920.512820512822,4168.20512820513,4170.769230769232,4186.153846153848,4170.769230769232,4203.076923076925,4141.0256410256425,4198.46153846154,850.0,2045.0,2042.0,0.0,0.0,4.0,4.0,4.0,4.0,0.0,4.0,4.0,4.0,4.0,2.0,4.0,4.0,4.0,4.0,4.0,4.0
102.0,0.0,4179.487179487181,4123.076923076925,4170.769230769232,4124.102564102565,4180.512820512822,4189.743589743592,3888.71794871795,4168.20512820513,4168.20512820513,4187.179487179489,4169.23076923077,4202.564102564104,4137.435897435899,4197.94871794872,868.0,2046.0,2044.0,0.0,0.0,4.0,4.0,4.0,4.0,0.0,4.0,4.0,4.0,4.0,2.0,4.0,4.0,4.0,4.0,4.0,4.0
103.0,0.0,4174.3589743589755,4117.94871794872,4169.23076923077,4119.487179487181,4180.512820512822,4185.641025641027,3866.6666666666683,4159.487179487181,4160.000000000002,4186.666666666668,4159.487179487181,4198.46153846154,4126.153846153848,4192.307692307694,825.0,2045.0,2045.0,0.0,0.0,4.0,4.0,4.0,4.0,0.0,4.0,4.0,4.0,4.0,2.0,4.0,4.0,4.0,4.0,4.0,4.0
104.0,0.0,4179.487179487181,4120.000000000002,4179.487179487181,4123.589743589745,4182.051282051283,4191.794871794873,3953.846153846155,4167.179487179489,4166.666666666668,4185.128205128207,4166.666666666668,4207.692307692309,4131.794871794873,4198.97435897436,854.0,2046.0,2044.0,0.0,0.0,4.0,4.0,4.0,4.0,0.0,4.0,4.0,4.0,4.0,2.0,4.0,4.0,4.0,4.0,4.0,4.0
105.0,0.0,4182.051282051283,4122.051282051283,4179.487179487181,4127.179487179489,4187.179487179489,4192.8205128205145,4003.0769230769247,4176.410256410258,4173.333333333335,4186.153846153848,4172.307692307694,4211.282051282053,4140.000000000002,4202.564102564104,850.0,2046.0,2043.0,0.0,0.0,4.0,4.0,4.0,4.0,0.0,4.0,4.0,4.0,4.0,2.0,4.0,4.0,4.0,4.0,4.0,4.0
106.0,0.0,4176.923076923078,4120.000000000002,4173.333333333335,4122.051282051283,4186.153846153848,4187.179487179489,3961.0256410256425,4172.307692307694,4169.23076923077,4187.692307692309,4170.769230769232,4208.20512820513,4139.487179487181,4200.000000000002,868.0,2045.0,2044.0,0.0,0.0,4.0,4.0,4.0,4.0,0.0,4.0,4.0,4.0,4.0,2.0,4.0,4.0,4.0,4.0,4.0,4.0
107.0,0.0,4180.000000000002,4121.538461538463,4177.94871794872,4123.076923076925,4186.666666666668,4188.20512820513,3972.8205128205145,4172.307692307694,4171.282051282053,4187.692307692309,4177.435897435899,4210.769230769232,4137.435897435899,4201.0256410256425,825.0,2046.0,2044.0,0.0,0.0,4.0,4.0,4.0,4.0,0.0,4.0,4.0,4.0,4.0,2.0,4.0,4.0,4.0,4.0,4.0,4.0
108.0,0.0,4183.589743589745,4120.512820512822,4180.512820512822,4123.589743589745,4186.153846153848,4190.256410256412,4007.692307692309,4180.000000000002,4178.46153846154,4187.179487179489,4182.051282051283,4211.282051282053,4140.512820512822,4200.512820512822,854.0,2047.0,2045.0,0.0,0.0,4.0,4.0,4.0,4.0,0.0,4.0,4.0,4.0,4.0,2.0,4.0,4.0,4.0,4.0,4.0,4.0
109.0,0.0,4178.97435897436,4118.97435897436,4175.384615384617,4122.564102564104,4179.487179487181,4186.666666666668,3945.1282051282064,4180.000000000002,4176.923076923078,4187.179487179489,4175.384615384617,4205.641025641027,4141.538461538463,4200.000000000002,850.0,2046.0,2044.0,0.0,0.0,4.0,4.0,4.0,4.0,0.0,4.0,4.0,4.0,4.0,2.0,4.0,4.0,4.0,4.0,4.0,4.0
110.0,0.0,4177.94871794872,4122.564102564104,4176.923076923078,4125.128205128207,4181.0256410256425,4188.20512820513,3897.435897435899,4172.8205128205145,4173.846153846155,4189.743589743592,4172.307692307694,4205.128205128207,4132.8205128205145,4199.487179487181,868.0,2045.0,2041.0,0.0,0.0,4.0,4.0,4.0,4.0,0.0,4.0,4.0,4.0,4.0,2.0,4.0,4.0,4.0,4.0,4.0,4.0
111.0,0.0,4172.307692307694,4114.3589743589755,4173.846153846155,4117.435897435899,4184.102564102565,4188.20512820513,3914.358974358976,4167.179487179489,4169.23076923077,4195.384615384617,4168.20512820513,4201.0256410256425,4119.487179487181,4189.743589743592,825.0,2046.0,2041.0,0.0,0.0,4.0,4.0,4.0,4.0,0.0,4.0,4.0,4.0,4.0,2.0,4.0,4.0,4.0,4.0,4.0,4.0
112.0,0.0,4162.564102564104,4102.051282051283,4164.102564102565,4110.769230769232,4185.641025641027,4185.128205128207,3903.0769230769247,4168.71794871795,4167.179487179489,4198.46153846154,4167.179487179489,4194.3589743589755,4124.102564102565,4186.666666666668,854.0,2045.0,2040.0,0.0,0.0,4.0,4.0,4.0,4.0,0.0,4.0,4.0,4.0,4.0,2.0,4.0,4.0,4.0,4.0,4.0,4.0
113.0,0.0,4170.769230769232,4106.153846153848,4171.794871794873,4120.000000000002,4188.71794871795,4188.20512820513,3938.46153846154,4172.8205128205145,4179.487179487181,4198.46153846154,4178.46153846154,4205.128205128207,4145.641025641027,4200.000000000002,850.0,2044.0,2040.0,0.0,0.0,4.0,4.0,4.0,4.0,0.0,4.0,4.0,4.0,4.0,2.0,4.0,4.0,4.0,4.0,4.0,4.0
114.0,0.0,4180.512820512822,4116.923076923078,4181.0256410256425,4126.666666666668,4187.179487179489,4190.769230769232,4004.615384615386,4169.743589743592,4186.666666666668,4199.487179487181,4185.128205128207,4217.435897435899,4153.846153846155,4206.153846153848,868.0,2046.0,2040.0,0.0,0.0,4.0,4.0,4.0,4.0,0.0,4.0,4.0,4.0,4.0,2.0,4.0,4.0,4.0,4.0,4.0,4.0
115.0,0.0,4176.923076923078,4120.000000000002,4174.871794871797,4121.538461538463,4189.743589743592,4193.846153846155,3958.46153846154,4169.23076923077,4175.384615384617,4201.538461538463,4182.564102564104,4212.307692307694,4148.20512820513,4201.538461538463,825.0,2045.0,2041.0,0.0,0.0,4.0,4.0,4.0,4.0,0.0,4.0,4.0,4.0,4.0,2.0,4.0,4.0,4.0,4.0,4.0,4.0
116.0,0.0,4177.435897435899,4121.0256410256425,4170.769230769232,4122.564102564104,4188.71794871795,4197.94871794872,3925.1282051282064,4176.410256410258,4172.307692307694,4201.0256410256425,4182.564102564104,4207.692307692309,4149.743589743592,4200.512820512822,854.0,2044.0,2041.0,0.0,0.0,4.0,4.0,4.0,4.0,0.0,4.0,4.0,4.0,4.0,2.0,4.0,4.0,4.0,4.0,4.0,4.0
117.0,0.0,4184.102564102565,4122.051282051283,4178.97435897436,4130.769230769232,4185.641025641027,4200.000000000002,4001.0256410256425,4184.615384615386,4183.589743589745,4200.512820512822,4188.71794871795,4216.410256410258,4156.923076923078,4206.666666666668,850.0,2044.0,2041.0,0.0,0.0,4.0,4.0,4.0,4.0,0.0,4.0,4.0,4.0,4.0,2.0,4.0,4.0,4.0,4.0,4.0,4.0
118.0,0.0,4185.641025641027,4118.97435897436,4185.128205128207,4129.23076923077,4190.256410256412,4197.94871794872,3941.5384615384633,4185.128205128207,4182.564102564104,4200.000000000002,4187.692307692309,4218.46153846154,4152.8205128205145,4207.179487179489,868.0,2044.0,2041.0,0.0,0.0,4.0,4.0,4.0,4.0,0.0,4.0,4.0,4.0,4.0,2.0,4.0,4.0,4.0,4.0,4.0,4.0
119.0,0.0,4185.128205128207,4116.923076923078,4183.589743589745,4125.641025641027,4189.23076923077,4191.794871794873,3766.1538461538476,4178.97435897436,4170.769230769232,4200.000000000002,4180.000000000002,4212.307692307694,4143.589743589745,4203.076923076925,825.0,2045.0,2042.0,0.0,0.0,4.0,4.0,4.0,4.0,0.0,4.0,4.0,4.0,4.0,2.0,4.0,4.0,4.0,4.0,4.0,4.0
120.0,0.0,4185.128205128207,4117.435897435899,4182.564102564104,4127.179487179489,4185.128205128207,4190.769230769232,3770.7692307692323,4177.435897435899,4171.794871794873,4201.538461538463,4182.564102564104,4212.307692307694,4147.692307692309,4202.564102564104,854.0,2045.0,2043.0,0.0,0.0,4.0,4.0,4.0,4.0,0.0,4.0,4.0,4.0,4.0,2.0,4.0,4.0,4.0,4.0,4.0,4.0
121.0,0.0,4177.435897435899,4114.3589743589755,4177.435897435899,4127.692307692309,4186.153846153848,4190.769230769232,3890.256410256412,4177.94871794872,4179.487179487181,4202.564102564104,4187.179487179489,4208.71794871795,4153.846153846155,4204.615384615386,850.0,2045.0,2042.0,0.0,0.0,4.0,4.0,4.0,4.0,0.0,4.0,4.0,4.0,4.0,2.0,4.0,4.0,4.0,4.0,4.0,4.0
122.0,0.0,4166.666666666668,4108.71794871795,4169.23076923077,4121.0256410256425,4189.23076923077,4187.179487179489,3941.0256410256425,4179.487179487181,4183.076923076925,4201.538461538463,4186.153846153848,4199.487179487181,4150.256410256412,4199.487179487181,868.0,2045.0,2042.0,0.0,0.0,4.0,4.0,4.0,4.0,0.0,4.0,4.0,4.0,4.0,2.0,4.0,4.0,4.0,4.0,4.0,4.0
123.0,0.0,4169.743589743592,4111.282051282053,4169.23076923077,4122.051282051283,4191.282051282053,4192.8205128205145,3970.7692307692323,4186.153846153848,4187.692307692309,4202.051282051283,4187.692307692309,4201.0256410256425,4153.333333333335,4194.3589743589755,825.0,2046.0,2043.0,0.0,0.0,4.0,4.0,4.0,4.0,0.0,4.0,4.0,4.0,4.0,2.0,4.0,4.0,4.0,4.0,4.0,4.0
124.0,0.0,4173.846153846155,4114.871794871797,4172.8205128205145,4125.641025641027,4185.641025641027,4199.487179487181,3996.9230769230785,4187.179487179489,4187.179487179489,4202.564102564104,4192.307692307694,4205.641025641027,4159.487179487181,4195.897435897437,854.0,2045.0,2043.0,0.0,0.0,4.0,4.0,4.0,4.0,0.0,4.0,4.0,4.0,4.0,2.0,4.0,4.0,4.0,4.0,4.0,4.0
125.0,0.0,4166.666666666668,4106.153846153848,4169.23076923077,4113.333333333335,4187.179487179489,4192.307692307694,3980.0000000000014,4176.410256410258,4175.897435897437,4202.051282051283,4183.076923076925,4202.051282051283,4148.71794871795,4191.794871794873,850.0,2045.0,2044.0,0.0,0.0,4.0,4.0,4.0,4.0,0.0,4.0,4.0,4.0,4.0,2.0,4.0,4.0,4.0,4.0,4.0,4.0
126.0,0.0,4161.538461538463,4099.487179487181,4169.743589743592,4107.692307692309,4192.307692307694,4182.051282051283,3949.230769230771,4173.846153846155,4167.179487179489,4201.0256410256425,4173.846153846155,4200.000000000002,4135.897435897437,4185.128205128207,868.0,2044.0,2043.0,0.0,0.0,4.0,4.0,4.0,4.0,0.0,4.0,4.0,4.0,4.0,2.0,4.0,4.0,4.0,4.0,4.0,4.0
127.0,0.0,4165.128205128207,4097.435897435899,4172.8205128205145,4118.46153846154,4190.256410256412,4185.641025641027,3877.435897435899,4178.97435897436,4169.23076923077,4201.0256410256425,4177.94871794872,4203.589743589745,4137.94871794872,4185.128205128207,825.0,2045.0,2044.0,0.0,0.0,4.0,4.0,4.0,4.0,0.0,4.0,4.0,4.0,4.0,2.0,4.0,4.0,4.0,4.0,4.0,4.0
128.0,0.0,4171.282051282053,4097.94871794872,4174.871794871797,4125.128205128207,4191.794871794873,4189.743589743592,3799.487179487181,4181.538461538463,4171.794871794873,4203.589743589745,4184.615384615386,4205.641025641027,4143.076923076925,4187.692307692309,854.0,2045.0,2043.0,0.0,0.0,4.0,4.0,4.0,4.0,0.0,4.0,4.0,4.0,4.0,2.0,4.0,4.0,4.0,4.0,4.0,4.0
0.0,0.0,4168.71794871795,4101.0256410256425,4173.846153846155,4120.512820512822,4191.282051282053,4183.076923076925,3862.0512820512836,4178.46153846154,4172.8205128205145,4202.564102564104,4181.538461538463,4202.564102564104,4141.0256410256425,4187.179487179489,836.0,2044.0,2044.0,0.0,0.0,4.0,4.0,4.0,4.0,0.0,4.0,4.0,4.0,4.0,2.0,4.0,4.0,4.0,4.0,4.0,4.0
1.0,0.0,4166.666666666668,4103.589743589745,4172.307692307694,4120.512820512822,4190.256410256412,4182.564102564104,3981.5384615384633,4175.897435897437,4178.97435897436,4201.0256410256425,4181.0256410256425,4203.589743589745,4142.051282051283,4188.20512820513,854.0,2044.0,2044.0,0.0,0.0,4.0,4.0,4.0,4.0,0.0,4.0,4.0,4.0,4.0,2.0,4.0,4.0,4.0,4.0,4.0,4.0
2.0,0.0,4180.000000000002,4113.333333333335,4180.000000000002,4134.871794871797,4191.282051282053,4192.8205128205145,3968.2051282051298,4181.538461538463,4188.71794871795,4207.179487179489,4195.897435897437,4214.871794871797,4154.3589743589755,4200.000000000002,838.0,2044.0,2044.0,0.0,0.0,4.0,4.0,4.0,4.0,0.0,4.0,4.0,4.0,4.0,2.0,4.0,4.0,4.0,4.0,4.0,4.0
3.0,0.0,4185.641025641027,4118.97435897436,4181.538461538463,4138.97435897436,4191.282051282053,4191.794871794873,3932.8205128205145,4184.102564102565,4188.20512820513,4209.743589743592,4200.000000000002,4215.384615384617,4161.0256410256425,4203.589743589745,869.0,2043.0,2044.0,0.0,0.0,4.0,4.0,4.0,4.0,0.0,4.0,4.0,4.0,4.0,2.0,4.0,4.0,4.0,4.0,4.0,4.0
4.0,0.0,4168.71794871795,4108.71794871795,4167.692307692309,4125.641025641027,4192.307692307694,4179.487179487181,3972.8205128205145,4174.871794871797,4175.384615384617,4202.051282051283,4185.128205128207,4201.538461538463,4148.20512820513,4189.743589743592,0.0,2043.0,2044.0,0.0,0.0,4.0,4.0,4.0,4.0,0.0,4.0,4.0,4.0,4.0,2.0,4.0,4.0,4.0,4.0,4.0,4.0
5.0,0.0,4164.102564102565,4104.615384615386,4164.102564102565,4121.0256410256425,4189.743589743592,4179.487179487181,3961.5384615384633,4169.743589743592,4168.71794871795,4201.0256410256425,4180.000000000002,4198.46153846154,4137.435897435899,4183.076923076925,637.0,2042.0,2045.0,0.0,0.0,4.0,4.0,4.0,4.0,0.0,4.0,4.0,4.0,4.0,2.0,4.0,4.0,4.0,4.0,4.0,4.0
6.0,0.0,4172.8205128205145,4113.846153846155,4170.769230769232,4131.794871794873,4189.23076923077,4188.20512820513,3914.358974358976,4175.897435897437,4174.3589743589755,4204.615384615386,4184.102564102565,4201.0256410256425,4140.512820512822,4187.179487179489,808.0,2042.0,2044.0,0.0,0.0,4.0,4.0,4.0,4.0,0.0,4.0,4.0,4.0,4.0,2.0,4.0,4.0,4.0,4.0,4.0,4.0
7.0,0.0,4161.538461538463,4111.282051282053,4162.051282051283,4128.20512820513,4191.282051282053,4186.666666666668,3909.743589743591,4174.871794871797,4173.333333333335,4201.538461538463,4175.384615384617,4186.153846153848,4136.410256410258,4176.410256410258,701.0,2040.0,2046.0,0.0,0.0,4.0,4.0,4.0,4.0,0.0,4.0,4.0,4.0,4.0,2.0,4.0,4.0,4.0,4.0,4.0,4.0
8.0,0.0,4157.94871794872,4107.692307692309,4155.384615384617,4124.102564102565,4188.20512820513,4185.641025641027,3908.71794871795,4176.923076923078,4169.743589743592,4201.538461538463,4171.794871794873,4180.512820512822,4135.384615384617,4170.769230769232,754.0,2040.0,2047.0,0.0,0.0,4.0,4.0,4.0,4.0,0.0,4.0,4.0,4.0,4.0,2.0,4.0,4.0,4.0,4.0,4.0,4.0
9.0,0.0,4180.000000000002,4123.076923076925,4174.871794871797,4144.615384615386,4187.179487179489,4198.97435897436,3927.1794871794887,4190.256410256412,4185.128205128207,4212.8205128205145,4194.3589743589755,4202.564102564104,4152.8205128205145,4193.333333333335,158.0,2041.0,2047.0,0.0,0.0,4.0,4.0,4.0,4.0,0.0,4.0,4.0,4.0,4.0,2.0,4.0,4.0,4.0,4.0,4.0,4.0
10.0,0.0,4188.71794871795,4127.692307692309,4188.20512820513,4152.8205128205145,4186.666666666668,4203.589743589745,3991.7948717948734,4189.743589743592,4196.923076923078,4216.410256410258,4203.076923076925,4214.3589743589755,4163.076923076925,4205.641025641027,868.0,2042.0,2046.0,0.0,0.0,4.0,4.0,4.0,4.0,0.0,4.0,4.0,4.0,4.0,2.0,4.0,4.0,4.0,4.0,4.0,4.0
11.0,0.0,4178.46153846154,4116.923076923078,4180.512820512822,4140.512820512822,4189.23076923077,4192.307692307694,4027.692307692309,4182.564102564104,4187.179487179489,4206.153846153848,4188.71794871795,4205.641025641027,4151.282051282053,4191.282051282053,825.0,2041.0,2048.0,0.0,0.0,4.0,4.0,4.0,4.0,0.0,4.0,4.0,4.0,4.0,2.0,4.0,4.0,4.0,4.0,4.0,4.0
12.0,0.0,4172.307692307694,4106.153846153848,4171.794871794873,4134.871794871797,4189.23076923077,4184.615384615386,4004.615384615386,4176.410256410258,4172.307692307694,4197.94871794872,4178.46153846154,4197.94871794872,4139.487179487181,4184.102564102565,854.0,2041.0,2048.0,0.0,0.0,4.0,4.0,4.0,4.0,0.0,4.0,4.0,4.0,4.0,2.0,4.0,4.0,4.0,4.0,4.0,4.0
13.0,0.0,4171.282051282053,4100.000000000002,4168.71794871795,4136.923076923078,4185.128205128207,4185.128205128207,4050.256410256412,4168.20512820513,4169.743589743592,4201.538461538463,4179.487179487181,4198.46153846154,4136.410256410258,4186.153846153848,850.0,2042.0,2049.0,0.0,0.0,4.0,4.0,4.0,4.0,0.0,4.0,4.0,4.0,4.0,2.0,4.0,4.0,4.0,4.0,4.0,4.0
14.0,0.0,4169.743589743592,4097.94871794872,4169.743589743592,4135.897435897437,4187.179487179489,4188.71794871795,4202.051282051283,4173.846153846155,4179.487179487181,4204.102564102565,4184.102564102565,4207.179487179489,4138.46153846154,4186.153846153848,868.0,2043.0,2048.0,0.0,0.0,4.0,4.0,4.0,4.0,0.0,4.0,4.0,4.0,4.0,2.0,4.0,4.0,4.0,4.0,4.0,4.0
15.0,0.0,4173.333333333335,4091.7948717948734,4173.846153846155,4135.384615384617,4184.102564102565,4193.333333333335,4247.179487179489,4184.102564102565,4185.128205128207,4204.102564102565,4188.20512820513,4211.282051282053,4142.564102564104,4190.256410256412,825.0,2043.0,2048.0,0.0,0.0,4.0,4.0,4.0,4.0,0.0,4.0,4.0,4.0,4.0,2.0,4.0,4.0,4.0,4.0,4.0,4.0
16.0,0.0,4184.615384615386,4088.2051282051298,4187.692307692309,4148.71794871795,4181.538461538463,4200.000000000002,4164.615384615386,4188.20512820513,4190.256410256412,4211.282051282053,4196.923076923078,4213.846153846155,4151.282051282053,4201.538461538463,0.0,2044.0,2048.0,0.0,0.0,4.0,4.0,4.0,4.0,0.0,4.0,4.0,4.0,4.0,2.0,4.0,4.0,4.0,4.0,4.0,4.0
17.0,0.0,4195.897435897437,4094.358974358976,4201.538461538463,4166.666666666668,4185.641025641027,4205.641025641027,4156.410256410258,4194.871794871797,4200.512820512822,4216.923076923078,4207.692307692309,4223.589743589745,4165.128205128207,4211.794871794873,0.0,2044.0,2049.0,0.0,0.0,4.0,4.0,4.0,4.0,0.0,4.0,4.0,4.0,4.0,2.0,4.0,4.0,4.0,4.0,4.0,4.0
18.0,0.0,4190.769230769232,4085.641025641027,4193.333333333335,4164.102564102565,4183.076923076925,4199.487179487181,4104.102564102565,4193.333333333335,4194.3589743589755,4208.71794871795,4200.512820512822,4221.538461538463,4164.615384615386,4207.692307692309,0.0,2045.0,2051.0,0.0,0.0,4.0,4.0,4.0,4.0,0.0,4.0,4.0,4.0,4.0,2.0,4.0,4.0,4.0,4.0,4.0,4.0
19.0,0.0,4175.897435897437,4062.564102564104,4175.384615384617,4147.692307692309,4180.512820512822,4187.692307692309,3915.384615384617,4181.538461538463,4177.94871794872,4197.435897435899,4181.0256410256425,4204.102564102565,4150.256410256412,4191.282051282053,0.0,2045.0,2052.0,0.0,0.0,4.0,4.0,4.0,4.0,0.0,4.0,4.0,4.0,4.0,2.0,4.0,4.0,4.0,4.0,4.0,4.0
20.0,0.0,4184.615384615386,4062.564102564104,4184.102564102565,4153.333333333335,4180.000000000002,4188.20512820513,3893.333333333335,4184.615384615386,4185.128205128207,4203.589743589745,4189.743589743592,4211.282051282053,4156.923076923078,4196.410256410258,0.0,2045.0,2052.0,0.0,0.0,4.0,4.0,4.0,4.0,0.0,4.0,4.0,4.0,4.0,2.0,4.0,4.0,4.0,4.0,4.0,4.0
21.0,0.0,4205.128205128207,4078.9743589743603,4204.615384615386,4174.3589743589755,4182.564102564104,4195.384615384617,4080.512820512822,4195.384615384617,4205.641025641027,4216.923076923078,4212.8205128205145,4236.410256410258,4183.076923076925,4220.000000000002,0.0,2046.0,2052.0,0.0,0.0,4.0,4.0,4.0,4.0,0.0,4.0,4.0,4.0,4.0,2.0,4.0,4.0,4.0,4.0,4.0,4.0
22.0,0.0,4200.000000000002,4076.4102564102577,4200.512820512822,4173.333333333335,4187.179487179489,4194.3589743589755,4138.46153846154,4189.743589743592,4203.076923076925,4214.871794871797,4207.179487179489,4233.333333333335,4181.538461538463,4216.923076923078,0.0,2046.0,2053.0,0.0,0.0,4.0,4.0,4.0,4.0,0.0,4.0,4.0,4.0,4.0,2.0,4.0,4.0,4.0,4.0,4.0,4.0
23.0,0.0,4193.846153846155,4071.7948717948734,4194.871794871797,4166.153846153848,4181.0256410256425,4192.8205128205145,4004.102564102566,4189.743589743592,4194.3589743589755,4210.769230769232,4199.487179487181,4226.153846153848,4167.179487179489,4206.153846153848,0.0,2045.0,2051.0,0.0,0.0,4.0,4.0,4.0,4.0,0.0,4.0,4.0,4.0,4.0,2.0,4.0,4.0,4.0,4.0,4.0,4.0
24.0,0.0,4203.076923076925,4076.9230769230785,4203.589743589745,4175.384615384617,4178.97435897436,4203.076923076925,3961.0256410256425,4200.512820512822,4203.589743589745,4214.871794871797,4214.871794871797,4236.923076923078,4177.435897435899,4215.384615384617,0.0,2045.0,2051.0,0.0,0.0,4.0,4.0,4.0,4.0,0.0,4.0,4.0,4.0,4.0,2.0,4.0,4.0,4.0,4.0,4.0,4.0
25.0,0.0,4195.897435897437,4066.6666666666683,4196.410256410258,4172.8205128205145,4182.564102564104,4202.564102564104,4073.333333333335,4191.794871794873,4206.153846153848,4210.769230769232,4211.794871794873,4229.743589743592,4178.97435897436,4210.769230769232,0.0,2047.0,2053.0,0.0,0.0,4.0,4.0,4.0,4.0,0.0,4.0,4.0,4.0,4.0,2.0,4.0,4.0,4.0,4.0,4.0,4.0
26.0,0.0,4175.384615384617,4048.2051282051298,4176.923076923078,4152.307692307694,4181.0256410256425,4186.153846153848,4138.46153846154,4178.46153846154,4186.153846153848,4200.512820512822,4184.615384615386,4205.641025641027,4153.333333333335,4187.179487179489,0.0,2047.0,2054.0,0.0,0.0,4.0,4.0,4.0,4.0,0.0,4.0,4.0,4.0,4.0,2.0,4.0,4.0,4.0,4.0,4.0,4.0
27.0,0.0,4176.923076923078,4049.743589743591,4178.97435897436,4152.307692307694,4181.0256410256425,4186.153846153848,4120.512820512822,4185.128205128207,4180.000000000002,4201.0256410256425,4183.076923076925,4206.153846153848,4144.615384615386,4188.20512820513,0.0,2044.0,2051.0,0.0,0.0,4.0,4.0,4.0,4.0,0.0,4.0,4.0,4.0,4.0,2.0,4.0,4.0,4.0,4.0,4.0,4.0
28.0,0.0,4190.256410256412,4061.0256410256425,4190.769230769232,4169.23076923077,4181.0256410256425,4196.410256410258,4080.0000000000014,4190.256410256412,4192.307692307694,4204.102564102565,4200.512820512822,4223.076923076925,4164.615384615386,4205.641025641027,0.0,2045.0,2050.0,0.0,0.0,4.0,4.0,4.0,4.0,0.0,4.0,4.0,4.0,4.0,2.0,4.0,4.0,4.0,4.0,4.0,4.0
29.0,0.0,4182.564102564104,4057.435897435899,4184.102564102565,4167.692307692309,4181.538461538463,4193.333333333335,4035.8974358974374,4183.076923076925,4188.71794871795,4201.538461538463,4197.435897435899,4219.487179487181,4169.743589743592,4200.512820512822,0.0,2046.0,2050.0,0.0,0.0,4.0,4.0,4.0,4.0,0.0,4.0,4.0,4.0,4.0,2.0,4.0,4.0,4.0,4.0,4.0,4.0
30.0,0.0,4180.512820512822,4055.8974358974374,4183.076923076925,4164.102564102565,4181.0256410256425,4191.282051282053,4092.3076923076937,4190.256410256412,4189.743589743592,4201.538461538463,4192.8205128205145,4215.897435897437,4166.153846153848,4197.94871794872,0.0,2044.0,2048.0,0.0,0.0,4.0,4.0,4.0,4.0,0.0,4.0,4.0,4.0,4.0,2.0,4.0,4.0,4.0,4.0,4.0,4.0
31.0,0.0,4193.846153846155,4067.1794871794887,4195.384615384617,4174.3589743589755,4180.000000000002,4200.512820512822,4227.692307692309,4200.512820512822,4203.589743589745,4205.128205128207,4204.615384615386,4228.20512820513,4173.333333333335,4209.23076923077,0.0,2044.0,2047.0,0.0,0.0,4.0,4.0,4.0,4.0,0.0,4.0,4.0,4.0,4.0,2.0,4.0,4.0,4.0,4.0,4.0,4.0
32.0,0.0,4191.794871794873,4064.615384615386,4194.871794871797,4173.846153846155,4184.615384615386,4201.538461538463,4204.102564102565,4191.794871794873,4196.410256410258,4204.102564102565,4202.564102564104,4227.179487179489,4170.256410256412,4205.641025641027,0.0,2042.0,2048.0,0.0,0.0,4.0,4.0,4.0,4.0,0.0,4.0,4.0,4.0,4.0,2.0,4.0,4.0,4.0,4.0,4.0,4.0
33.0,0.0,4180.000000000002,4051.2820512820526,4185.128205128207,4167.179487179489,4182.051282051283,4192.307692307694,4068.71794871795,4181.0256410256425,4181.0256410256425,4200.512820512822,4186.153846153848,4216.923076923078,4155.897435897437,4191.282051282053,0.0,2042.0,2047.0,0.0,0.0,4.0,4.0,4.0,4.0,0.0,4.0,4.0,4.0,4.0,2.0,4.0,4.0,4.0,4.0,4.0,4.0
34.0,0.0,4177.435897435899,4047.1794871794887,4180.000000000002,4165.128205128207,4179.487179487181,4189.743589743592,4067.1794871794887,4181.0256410256425,4182.564102564104,4200.000000000002,4181.538461538463,4211.282051282053,4150.769230769232,4185.641025641027,0.0,2043.0,2048.0,0.0,0.0,4.0,4.0,4.0,4.0,0.0,4.0,4.0,4.0,4.0,2.0,4.0,4.0,4.0,4.0,4.0,4.0
35.0,0.0,4175.384615384617,4047.1794871794887,4176.923076923078,4159.487179487181,4183.076923076925,4194.3589743589755,4118.97435897436,4184.615384615386,4188.71794871795,4202.051282051283,4189.743589743592,4208.20512820513,4156.923076923078,4187.179487179489,0.0,2044.0,2048.0,0.0,0.0,4.0,4.0,4.0,4.0,0.0,4.0,4.0,4.0,4.0,2.0,4.0,4.0,4.0,4.0,4.0,4.0
36.0,0.0,4166.153846153848,4038.9743589743603,4167.692307692309,4152.307692307694,4184.102564102565,4192.8205128205145,4111.282051282053,4178.97435897436,4181.0256410256425,4200.512820512822,4185.641025641027,4200.000000000002,4156.410256410258,4184.102564102565,0.0,2044.0,2048.0,0.0,0.0,4.0,4.0,4.0,4.0,0.0,4.0,4.0,4.0,4.0,2.0,4.0,4.0,4.0,4.0,4.0,4.0
37.0,0.0,4163.589743589745,4030.7692307692323,4163.076923076925,4150.769230769232,4185.128205128207,4188.71794871795,4135.384615384617,4170.256410256412,4171.794871794873,4198.97435897436,4171.282051282053,4192.8205128205145,4150.256410256412,4177.435897435899,0.0,2043.0,2048.0,0.0,0.0,4.0,4.0,4.0,4.0,0.0,4.0,4.0,4.0,4.0,2.0,4.0,4.0,4.0,4.0,4.0,4.0
38.0,0.0,4171.282051282053,4038.46153846154,4171.282051282053,4154.871794871797,4182.051282051283,4190.256410256412,4163.076923076925,4172.8205128205145,4176.410256410258,4200.512820512822,4175.897435897437,4196.923076923078,4156.410256410258,4182.564102564104,0.0,2044.0,2048.0,0.0,0.0,4.0,4.0,4.0,4.0,0.0,4.0,4.0,4.0,4.0,2.0,4.0,4.0,4.0,4.0,4.0,4.0
39.0,0.0,4167.692307692309,4042.564102564104,4169.23076923077,4155.897435897437,4182.051282051283,4191.282051282053,4116.923076923078,4177.435897435899,4181.0256410256425,4201.0256410256425,4183.589743589745,4200.000000000002,4161.0256410256425,4185.641025641027,0.0,2044.0,2048.0,0.0,0.0,4.0,4.0,4.0,4.0,0.0,4.0,4.0,4.0,4.0,2.0,4.0,4.0,4.0,4.0,4.0,4.0
40.0,0.0,4154.3589743589755,4029.743589743591,4152.8205128205145,4147.692307692309,4184.615384615386,4184.102564102565,4106.153846153848,4169.23076923077,4169.743589743592,4197.435897435899,4168.71794871795,4188.71794871795,4146.153846153848,4169.23076923077,0.0,2043.0,2046.0,0.0,0.0,4.0,4.0,4.0,4.0,0.0,4.0,4.0,4.0,4.0,2.0,4.0,4.0,4.0,4.0,4.0,4.0
41.0,0.0,4155.897435897437,4026.1538461538476,4151.794871794873,4143.589743589745,4182.051282051283,4181.0256410256425,4112.307692307694,4162.051282051283,4160.000000000002,4195.897435897437,4156.923076923078,4180.000000000002,4138.46153846154,4163.076923076925,0.0,2045.0,2045.0,0.0,0.0,4.0,4.0,4.0,4.0,0.0,4.0,4.0,4.0,4.0,2.0,4.0,4.0,4.0,4.0,4.0,4.0
42.0,0.0,4170.769230769232,4042.564102564104,4169.23076923077,4154.871794871797,4183.076923076925,4190.256410256412,4064.102564102566,4171.794871794873,4168.71794871795,4199.487179487181,4169.743589743592,4191.794871794873,4152.8205128205145,4181.0256410256425,0.0,2044.0,2045.0,0.0,0.0,4.0,4.0,4.0,4.0,0.0,4.0,4.0,4.0,4.0,2.0,4.0,4.0,4.0,4.0,4.0,4.0
43.0,0.0,4179.487179487181,4049.230769230771,4176.410256410258,4165.128205128207,4184.615384615386,4195.897435897437,4056.9230769230785,4180.512820512822,4178.46153846154,4200.512820512822,4180.512820512822,4203.076923076925,4157.94871794872,4190.256410256412,0.0,2044.0,2043.0,0.0,0.0,4.0,4.0,4.0,4.0,0.0,4.0,4.0,4.0,4.0,2.0,4.0,4.0,4.0,4.0,4.0,4.0
44.0,0.0,4180.512820512822,4047.692307692309,4176.923076923078,4166.666666666668,4183.076923076925,4191.794871794873,4101.538461538463,4182.564102564104,4178.97435897436,4198.46153846154,4180.512820512822,4203.076923076925,4154.3589743589755,4188.71794871795,0.0,2045.0,2041.0,0.0,0.0,4.0,4.0,4.0,4.0,0.0,4.0,4.0,4.0,4.0,2.0,4.0,4.0,4.0,4.0,4.0,4.0
45.0,0.0,4189.743589743592,4060.0000000000014,4189.743589743592,4173.333333333335,4185.128205128207,4193.333333333335,4086.6666666666683,4187.179487179489,4187.692307692309,4200.512820512822,4190.256410256412,4213.333333333335,4167.692307692309,4202.051282051283,0.0,2046.0,2041.0,0.0,0.0,4.0,4.0,4.0,4.0,0.0,4.0,4.0,4.0,4.0,2.0,4.0,4.0,4.0,4.0,4.0,4.0
46.0,0.0,4193.333333333335,4060.0000000000014,4193.333333333335,4173.846153846155,4185.128205128207,4194.3589743589755,4015.8974358974374,4184.615384615386,4189.743589743592,4201.0256410256425,4190.256410256412,4217.94871794872,4172.307692307694,4203.589743589745,0.0,2047.0,2041.0,0.0,0.0,4.0,4.0,4.0,4.0,0.0,4.0,4.0,4.0,4.0,2.0,4.0,4.0,4.0,4.0,4.0,4.0
47.0,0.0,4177.435897435899,4042.564102564104,4177.94871794872,4158.97435897436,4183.076923076925,4186.666666666668,3965.641025641027,4176.923076923078,4174.3589743589755,4197.94871794872,4173.846153846155,4202.564102564104,4152.307692307694,4184.102564102565,0.0,2048.0,2041.0,0.0,0.0,4.0,4.0,4.0,4.0,0.0,4.0,4.0,4.0,4.0,2.0,4.0,4.0,4.0,4.0,4.0,4.0
48.0,0.0,4168.20512820513,4037.9487179487196,4170.769230769232,4151.282051282053,4179.487179487181,4177.94871794872,3995.384615384617,4172.8205128205145,4168.20512820513,4197.94871794872,4167.179487179489,4195.384615384617,4143.589743589745,4177.94871794872,0.0,2047.0,2042.0,0.0,0.0,4.0,4.0,4.0,4.0,0.0,4.0,4.0,4.0,4.0,2.0,4.0,4.0,4.0,4.0,4.0,4.0
49.0,0.0,4175.897435897437,4048.71794871795,4175.897435897437,4157.94871794872,4182.564102564104,4180.512820512822,4097.94871794872,4172.307692307694,4176.410256410258,4200.000000000002,4172.307692307694,4204.102564102565,4153.333333333335,4187.179487179489,0.0,2049.0,2043.0,0.0,0.0,4.0,4.0,4.0,4.0,0.0,4.0,4.0,4.0,4.0,2.0,4.0,4.0,4.0,4.0,4.0,4.0
50.0,0.0,4180.512820512822,4051.2820512820526,4176.923076923078,4161.538461538463,4185.641025641027,4190.769230769232,4132.307692307694,4175.384615384617,4180.512820512822,4200.000000000002,4175.897435897437,4204.615384615386,4156.410256410258,4188.71794871795,0.0,2048.0,2045.0,0.0,0.0,4.0,4.0,4.0,4.0,0.0,4.0,4.0,4.0,4.0,2.0,4.0,4.0,4.0,4.0,4.0,4.0
51.0,0.0,4175.384615384617,4046.6666666666683,4172.8205128205145,4158.46153846154,4181.538461538463,4192.307692307694,4051.7948717948734,4180.000000000002,4178.97435897436,4198.97435897436,4177.94871794872,4203.076923076925,4150.769230769232,4184.102564102565,0.0,2046.0,2045.0,0.0,0.0,4.0,4.0,4.0,4.0,0.0,4.0,4.0,4.0,4.0,2.0,4.0,4.0,4.0,4.0,4.0,4.0
52.0,0.0,4181.538461538463,4060.0000000000014,4185.641025641027,4171.794871794873,4184.615384615386,4192.307692307694,4003.0769230769247,4189.23076923077,4187.179487179489,4200.512820512822,4186.153846153848,4214.3589743589755,4160.000000000002,4193.846153846155,0.0,2046.0,2045.0,0.0,0.0,4.0,4.0,4.0,4.0,0.0,4.0,4.0,4.0,4.0,2.0,4.0,4.0,4.0,4.0,4.0,4.0
53.0,0.0,4193.333333333335,4076.4102564102577,4203.589743589745,4187.179487179489,4187.179487179489,4193.333333333335,4028.2051282051298,4194.3589743589755,4200.000000000002,4201.538461538463,4191.282051282053,4223.589743589745,4173.333333333335,4207.179487179489,0.0,2046.0,2044.0,0.0,0.0,4.0,4.0,4.0,4.0,0.0,4.0,4.0,4.0,4.0,2.0,4.0,4.0,4.0,4.0,4.0,4.0
54.0,0.0,4189.23076923077,4071.2820512820526,4196.923076923078,4180.000000000002,4182.564102564104,4190.256410256412,4030.256410256412,4191.282051282053,4198.46153846154,4199.487179487181,4190.256410256412,4221.0256410256425,4166.666666666668,4203.076923076925,0.0,2046.0,2045.0,0.0,0.0,4.0,4.0,4.0,4.0,0.0,4.0,4.0,4.0,4.0,2.0,4.0,4.0,4.0,4.0,4.0,4.0
55.0,0.0,4171.794871794873,4055.8974358974374,4176.923076923078,4165.641025641027,4184.102564102565,4185.128205128207,3995.384615384617,4183.589743589745,4186.153846153848,4197.94871794872,4180.000000000002,4208.71794871795,4150.769230769232,4185.128205128207,0.0,2045.0,2046.0,0.0,0.0,4.0,4.0,4.0,4.0,0.0,4.0,4.0,4.0,4.0,2.0,4.0,4.0,4.0,4.0,4.0,4.0
56.0,0.0,4166.666666666668,4056.4102564102577,4174.3589743589755,4168.20512820513,4185.128205128207,4186.666666666668,3980.512820512822,4181.538461538463,4181.538461538463,4199.487179487181,4173.333333333335,4203.589743589745,4151.794871794873,4181.538461538463,0.0,2045.0,2047.0,0.0,0.0,4.0,4.0,4.0,4.0,0.0,4.0,4.0,4.0,4.0,2.0,4.0,4.0,4.0,4.0,4.0,4.0
57.0,0.0,4178.46153846154,4070.256410256412,4187.179487179489,4178.97435897436,4185.128205128207,4192.307692307694,4001.0256410256425,4188.71794871795,4190.256410256412,4200.512820512822,4184.615384615386,4214.871794871797,4161.0256410256425,4193.846153846155,0.0,2043.0,2045.0,0.0,0.0,4.0,4.0,4.0,4.0,0.0,4.0,4.0,4.0,4.0,2.0,4.0,4.0,4.0,4.0,4.0,4.0
58.0,0.0,4180.000000000002,4068.71794871795,4187.179487179489,4173.333333333335,4183.076923076925,4192.307692307694,4019.487179487181,4185.128205128207,4186.666666666668,4198.46153846154,4185.641025641027,4215.897435897437,4155.384615384617,4191.794871794873,0.0,2042.0,2045.0,0.0,0.0,4.0,4.0,4.0,4.0,0.0,4.0,4.0,4.0,4.0,2.0,4.0,4.0,4.0,4.0,4.0,4.0
59.0,0.0,4169.23076923077,4060.0000000000014,4181.538461538463,4168.20512820513,4181.538461538463,4194.871794871797,4003.0769230769247,4181.538461538463,4181.0256410256425,4198.46153846154,4173.333333333335,4206.153846153848,4148.71794871795,4183.076923076925,0.0,2041.0,2046.0,0.0,0.0,4.0,4.0,4.0,4.0,0.0,4.0,4.0,4.0,4.0,2.0,4.0,4.0,4.0,4.0,4.0,4.0
60.0,0.0,4166.666666666668,4063.589743589745,4180.512820512822,4170.769230769232,4184.102564102565,4197.435897435899,3965.1282051282064,4184.102564102565,4183.589743589745,4196.923076923078,4171.282051282053,4207.179487179489,4148.20512820513,4183.589743589745,0.0,2041.0,2047.0,0.0,0.0,4.0,4.0,4.0,4.0,0.0,4.0,4.0,4.0,4.0,2.0,4.0,4.0,4.0,4.0,4.0,4.0
61.0,0.0,4164.102564102565,4063.589743589745,4169.23076923077,4164.102564102565,4183.076923076925,4186.153846153848,3961.5384615384633,4174.871794871797,4174.871794871797,4189.743589743592,4172.307692307694,4201.0256410256425,4142.051282051283,4178.46153846154,0.0,2040.0,2045.0,0.0,0.0,4.0,4.0,4.0,4.0,0.0,4.0,4.0,4.0,4.0,2.0,4.0,4.0,4.0,4.0,4.0,4.0
62.0,0.0,4150.769230769232,4049.743589743591,4153.333333333335,4149.23076923077,4183.589743589745,4173.846153846155,4006.6666666666683,4164.102564102565,4162.564102564104,4183.589743589745,4164.615384615386,4183.076923076925,4135.897435897437,4166.153846153848,0.0,2040.0,2047.0,0.0,0.0,4.0,4.0,4.0,4.0,0.0,4.0,4.0,4.0,4.0,2.0,4.0,4.0,4.0,4.0,4.0,4.0
63.0,0.0,4152.8205128205145,4049.230769230771,4157.435897435899,4148.71794871795,4182.564102564104,4176.410256410258,4006.1538461538476,4171.794871794873,4171.794871794873,4189.23076923077,4166.666666666668,4187.692307692309,4145.641025641027,4173.333333333335,0.0,2041.0,2047.0,0.0,0.0,4.0,4.0,4.0,4.0,0.0,4.0,4.0,4.0,4.0,2.0,4.0,4.0,4.0,4.0,4.0,4.0
64.0,0.0,4165.641025641027,4065.641025641027,4173.333333333335,4161.0256410256425,4179.487179487181,4184.102564102565,3960.0000000000014,4183.589743589745,4184.615384615386,4197.94871794872,4177.435897435899,4204.615384615386,4160.512820512822,4191.794871794873,836.0,2039.0,2045.0,0.0,0.0,4.0,4.0,4.0,4.0,0.0,4.0,4.0,4.0,4.0,2.0,4.0,4.0,4.0,4.0,4.0,4.0
65.0,0.0,4170.769230769232,4074.358974358976,4180.000000000002,4168.71794871795,4186.666666666668,4187.179487179489,3976.4102564102577,4186.666666666668,4184.102564102565,4196.923076923078,4183.589743589745,4204.615384615386,4163.589743589745,4192.8205128205145,854.0,2041.0,2047.0,0.0,0.0,4.0,4.0,4.0,4.0,0.0,4.0,4.0,4.0,4.0,2.0,4.0,4.0,4.0,4.0,4.0,4.0
66.0,0.0,4181.538461538463,4084.615384615386,4187.692307692309,4182.051282051283,4186.153846153848,4194.3589743589755,4003.0769230769247,4195.384615384617,4192.8205128205145,4198.97435897436,4191.794871794873,4205.128205128207,4169.743589743592,4194.871794871797,838.0,2041.0,2048.0,0.0,0.0,4.0,4.0,4.0,4.0,0.0,4.0,4.0,4.0,4.0,2.0,4.0,4.0,4.0,4.0,4.0,4.0
67.0,0.0,4183.076923076925,4086.6666666666683,4186.153846153848,4184.102564102565,4178.46153846154,4198.46153846154,3945.1282051282064,4197.435897435899,4193.846153846155,4199.487179487181,4188.20512820513,4200.512820512822,4170.256410256412,4195.897435897437,861.0,2040.0,2047.0,0.0,0.0,4.0,4.0,4.0,4.0,0.0,4.0,4.0,4.0,4.0,2.0,4.0,4.0,4.0,4.0,4.0,4.0
68.0,0.0,4168.71794871795,4073.846153846155,4172.8205128205145,4168.71794871795,4180.000000000002,4187.179487179489,3889.230769230771,4185.641025641027,4175.897435897437,4192.307692307694,4169.743589743592,4184.615384615386,4155.897435897437,4182.564102564104,0.0,2040.0,2047.0,0.0,0.0,4.0,4.0,4.0,4.0,0.0,4.0,4.0,4.0,4.0,2.0,4.0,4.0,4.0,4.0,4.0,4.0
69.0,0.0,4166.153846153848,4071.2820512820526,4171.282051282053,4165.641025641027,4183.589743589745,4182.051282051283,3929.230769230771,4181.538461538463,4170.769230769232,4192.8205128205145,4168.20512820513,4182.564102564104,4152.307692307694,4174.871794871797,637.0,2041.0,2047.0,0.0,0.0,4.0,4.0,4.0,4.0,0.0,4.0,4.0,4.0,4.0,2.0,4.0,4.0,4.0,4.0,4.0,4.0
70.0,0.0,4174.3589743589755,4077.435897435899,4177.94871794872,4172.8205128205145,4185.128205128207,4189.743589743592,3978.9743589743607,4184.615384615386,4176.923076923078,4194.871794871797,4176.923076923078,4187.692307692309,4156.923076923078,4180.000000000002,782.0,2040.0,2048.0,0.0,0.0,4.0,4.0,4.0,4.0,0.0,4.0,4.0,4.0,4.0,2.0,4.0,4.0,4.0,4.0,4.0,4.0
71.0,0.0,4167.179487179489,4072.8205128205145,4169.743589743592,4168.71794871795,4182.051282051283,4183.589743589745,3938.9743589743607,4180.000000000002,4172.8205128205145,4187.692307692309,4169.23076923077,4180.000000000002,4150.256410256412,4181.0256410256425,673.0,2042.0,2046.0,0.0,0.0,4.0,4.0,4.0,4.0,0.0,4.0,4.0,4.0,4.0,2.0,4.0,4.0,4.0,4.0,4.0,4.0
72.0,0.0,4168.20512820513,4075.384615384617,4169.743589743592,4165.641025641027,4180.000000000002,4180.512820512822,3898.46153846154,4179.487179487181,4179.487179487181,4189.23076923077,4174.3589743589755,4186.153846153848,4156.923076923078,4192.307692307694,754.0,2041.0,2047.0,0.0,0.0,4.0,4.0,4.0,4.0,0.0,4.0,4.0,4.0,4.0,2.0,4.0,4.0,4.0,4.0,4.0,4.0
73.0,0.0,4183.076923076925,4089.230769230771,4187.179487179489,4171.794871794873,4183.589743589745,4196.410256410258,3949.230769230771,4189.23076923077,4193.333333333335,4195.897435897437,4186.666666666668,4201.538461538463,4167.179487179489,4201.538461538463,158.0,2041.0,2046.0,0.0,0.0,4.0,4.0,4.0,4.0,0.0,4.0,4.0,4.0,4.0,2.0,4.0,4.0,4.0,4.0,4.0,4.0
74.0,0.0,4174.871794871797,4083.0769230769247,4183.076923076925,4168.71794871795,4180.512820512822,4196.410256410258,4020.0000000000014,4184.102564102565,4178.46153846154,4187.179487179489,4170.256410256412,4188.71794871795,4139.487179487181,4175.384615384617,868.0,2041.0,2046.0,0.0,0.0,4.0,4.0,4.0,4.0,0.0,4.0,4.0,4.0,4.0,2.0,4.0,4.0,4.0,4.0,4.0,4.0
75.0,0.0,4165.128205128207,4077.435897435899,4174.3589743589755,4167.692307692309,4178.46153846154,4186.666666666668,4046.1538461538476,4181.0256410256425,4172.307692307694,4183.076923076925,4165.641025641027,4179.487179487181,4127.179487179489,4166.153846153848,825.0,2042.0,2044.0,0.0,0.0,4.0,4.0,4.0,4.0,0.0,4.0,4.0,4.0,4.0,2.0,4.0,4.0,4.0,4.0,4.0,4.0
76.0,0.0,4174.3589743589755,4091.2820512820526,4185.641025641027,4174.3589743589755,4181.0256410256425,4194.3589743589755,4055.8974358974374,4192.8205128205145,4189.23076923077,4193.333333333335,4186.666666666668,4192.8205128205145,4163.589743589745,4197.94871794872,854.0,2042.0,2042.0,0.0,0.0,4.0,4.0,4.0,4.0,0.0,4.0,4.0,4.0,4.0,2.0,4.0,4.0,4.0,4.0,4.0,4.0
77.0,0.0,4174.3589743589755,4094.8717948717963,4182.564102564104,4172.8205128205145,4178.46153846154,4195.897435897437,4053.333333333335,4190.256410256412,4189.743589743592,4196.410256410258,4189.23076923077,4191.282051282053,4176.923076923078,4204.615384615386,850.0,2042.0,2040.0,0.0,0.0,4.0,4.0,4.0,4.0,0.0,4.0,4.0,4.0,4.0,2.0,4.0,4.0,4.0,4.0,4.0,4.0
78.0,0.0,4163.589743589745,4085.1282051282064,4165.641025641027,4166.666666666668,4177.435897435899,4185.641025641027,4020.0000000000014,4176.923076923078,4180.000000000002,4194.871794871797,4180.000000000002,4177.435897435899,4163.076923076925,4190.256410256412,868.0,2042.0,2038.0,0.0,0.0,4.0,4.0,4.0,4.0,0.0,4.0,4.0,4.0,4.0,2.0,4.0,4.0,4.0,4.0,4.0,4.0
79.0,0.0,4168.71794871795,4089.743589743591,4175.384615384617,4169.743589743592,4175.897435897437,4188.71794871795,4007.1794871794887,4177.435897435899,4185.128205128207,4196.410256410258,4187.692307692309,4182.051282051283,4173.846153846155,4200.512820512822,825.0,2042.0,2036.0,0.0,0.0,4.0,4.0,4.0,4.0,0.0,4.0,4.0,4.0,4.0,2.0,4.0,4.0,4.0,4.0,4.0,4.0
80.0,0.0,4175.897435897437,4094.358974358976,4186.666666666668,4173.333333333335,4178.97435897436,4192.307692307694,4024.102564102566,4181.0256410256425,4190.256410256412,4197.435897435899,4191.282051282053,4192.307692307694,4186.153846153848,4203.589743589745,854.0,2044.0,2037.0,0.0,0.0,4.0,4.0,4.0,4.0,0.0,4.0,4.0,4.0,4.0,2.0,4.0,4.0,4.0,4.0,4.0,4.0
81.0,0.0,4164.102564102565,4083.589743589745,4169.743589743592,4166.666666666668,4179.487179487181,4181.0256410256425,4017.435897435899,4171.794871794873,4183.076923076925,4198.97435897436,4182.564102564104,4181.0256410256425,4180.000000000002,4186.666666666668,850.0,2044.0,2038.0,0.0,0.0,4.0,4.0,4.0,4.0,0.0,4.0,4.0,4.0,4.0,2.0,4.0,4.0,4.0,4.0,4.0,4.0
82.0,0.0,4156.410256410258,4080.512820512822,4158.97435897436,4163.076923076925,4176.923076923078,4180.512820512822,3978.9743589743607,4166.666666666668,4178.97435897436,4195.384615384617,4178.97435897436,4168.71794871795,4177.435897435899,4189.23076923077,868.0,2044.0,2038.0,0.0,0.0,4.0,4.0,4.0,4.0,0.0,4.0,4.0,4.0,4.0,2.0,4.0,4.0,4.0,4.0,4.0,4.0
83.0,0.0,4164.615384615386,4090.7692307692323,4168.20512820513,4169.743589743592,4180.000000000002,4189.743589743592,3970.7692307692323,4175.897435897437,4183.589743589745,4187.179487179489,4185.128205128207,4178.46153846154,4183.589743589745,4198.97435897436,825.0,2044.0,2039.0,0.0,0.0,4.0,4.0,4.0,4.0,0.0,4.0,4.0,4.0,4.0,2.0,4.0,4.0,4.0,4.0,4.0,4.0
84.0,0.0,4171.282051282053,4093.333333333335,4172.8205128205145,4172.8205128205145,4181.0256410256425,4185.128205128207,4015.384615384617,4180.000000000002,4186.666666666668,4187.692307692309,4188.71794871795,4186.666666666668,4185.128205128207,4191.794871794873,854.0,2043.0,2041.0,0.0,0.0,4.0,4.0,4.0,4.0,0.0,4.0,4.0,4.0,4.0,2.0,4.0,4.0,4.0,4.0,4.0,4.0
85.0,0.0,4164.615384615386,4088.2051282051298,4166.666666666668,4170.256410256412,4182.051282051283,4181.0256410256425,4069.230769230771,4175.897435897437,4186.153846153848,4197.435897435899,4183.076923076925,4176.923076923078,4183.589743589745,4189.23076923077,850.0,2043.0,2041.0,0.0,0.0,4.0,4.0,4.0,4.0,0.0,4.0,4.0,4.0,4.0,2.0,4.0,4.0,4.0,4.0,4.0,4.0
86.0,0.0,4165.128205128207,4097.435897435899,4175.897435897437,4179.487179487181,4181.0256410256425,4192.307692307694,4095.384615384617,4181.538461538463,4189.743589743592,4203.076923076925,4191.794871794873,4177.94871794872,4193.846153846155,4208.20512820513,868.0,2043.0,2043.0,0.0,0.0,4.0,4.0,4.0,4.0,0.0,4.0,4.0,4.0,4.0,2.0,4.0,4.0,4.0,4.0,4.0,4.0
87.0,0.0,4172.307692307694,4104.102564102565,4187.692307692309,4186.153846153848,4178.46153846154,4195.384615384617,4094.8717948717963,4190.256410256412,4192.8205128205145,4197.435897435899,4200.000000000002,4194.3589743589755,4206.153846153848,4219.487179487181,825.0,2043.0,2044.0,0.0,0.0,4.0,4.0,4.0,4.0,0.0,4.0,4.0,4.0,4.0,2.0,4.0,4.0,4.0,4.0,4.0,4.0
88.0,0.0,4166.153846153848,4091.2820512820526,4179.487179487181,4173.846153846155,4180.512820512822,4188.71794871795,4080.0000000000014,4184.615384615386,4185.128205128207,4190.256410256412,4184.102564102565,4188.71794871795,4200.512820512822,4203.589743589745,854.0,2043.0,2044.0,0.0,0.0,4.0,4.0,4.0,4.0,0.0,4.0,4.0,4.0,4.0,2.0,4.0,4.0,4.0,4.0,4.0,4.0
89.0,0.0,4153.846153846155,4080.512820512822,4166.153846153848,4163.589743589745,4176.923076923078,4186.153846153848,4057.435897435899,4177.435897435899,4179.487179487181,4188.71794871795,4171.282051282053,4169.743589743592,4184.102564102565,4187.692307692309,850.0,2043.0,2044.0,0.0,0.0,4.0,4.0,4.0,4.0,0.0,4.0,4.0,4.0,4.0,2.0,4.0,4.0,4.0,4.0,4.0,4.0
90.0,0.0,4151.282051282053,4089.230769230771,4170.769230769232,4167.692307692309,4176.410256410258,4193.333333333335,4041.0256410256425,4185.128205128207,4185.128205128207,4193.333333333335,4182.564102564104,4173.846153846155,4184.615384615386,4192.8205128205145,868.0,2044.0,2043.0,0.0,0.0,4.0,4.0,4.0,4.0,0.0,4.0,4.0,4.0,4.0,2.0,4.0,4.0,4.0,4.0,4.0,4.0
91.0,0.0,4160.512820512822,4101.0256410256425,4183.076923076925,4176.410256410258,4179.487179487181,4198.46153846154,4048.2051282051298,4188.71794871795,4188.20512820513,4195.384615384617,4190.769230769232,4186.666666666668,4195.384615384617,4202.564102564104,825.0,2043.0,2044.0,0.0,0.0,4.0,4.0,4.0,4.0,0.0,4.0,4.0,4.0,4.0,2.0,4.0,4.0,4.0,4.0,4.0,4.0
92.0,0.0,4167.179487179489,4104.102564102565,4182.564102564104,4179.487179487181,4178.97435897436,4194.3589743589755,4068.71794871795,4180.512820512822,4183.589743589745,4187.179487179489,4184.102564102565,4187.692307692309,4198.97435897436,4202.051282051283,854.0,2044.0,2044.0,0.0,0.0,4.0,4.0,4.0,4.0,0.0,4.0,4.0,4.0,4.0,2.0,4.0,4.0,4.0,4.0,4.0,4.0
93.0,0.0,4171.282051282053,4112.8205128205145,4185.641025641027,4187.692307692309,4181.538461538463,4193.846153846155,4051.2820512820526,4181.0256410256425,4192.8205128205145,4187.179487179489,4188.20512820513,4190.256410256412,4203.589743589745,4207.692307692309,850.0,2044.0,2046.0,0.0,0.0,4.0,4.0,4.0,4.0,0.0,4.0,4.0,4.0,4.0,2.0,4.0,4.0,4.0,4.0,4.0,4.0
94.0,0.0,4173.846153846155,4118.97435897436,4189.743589743592,4191.794871794873,4178.97435897436,4195.897435897437,3996.9230769230785,4185.641025641027,4201.538461538463,4195.897435897437,4197.94871794872,4195.384615384617,4208.20512820513,4214.871794871797,868.0,2044.0,2045.0,0.0,0.0,4.0,4.0,4.0,4.0,0.0,4.0,4.0,4.0,4.0,2.0,4.0,4.0,4.0,4.0,4.0,4.0
95.0,0.0,4163.589743589745,4109.743589743592,4178.97435897436,4179.487179487181,4176.410256410258,4192.307692307694,3966.1538461538476,4177.94871794872,4187.179487179489,4193.333333333335,4190.256410256412,4185.641025641027,4202.564102564104,4205.641025641027,825.0,2045.0,2046.0,0.0,0.0,4.0,4.0,4.0,4.0,0.0,4.0,4.0,4.0,4.0,2.0,4.0,4.0,4.0,4.0,4.0,4.0
96.0,0.0,4153.333333333335,4102.051282051283,4167.692307692309,4171.794871794873,4178.97435897436,4184.102564102565,3952.3076923076937,4170.256410256412,4175.897435897437,4185.641025641027,4173.846153846155,4178.46153846154,4190.769230769232,4191.282051282053,854.0,2045.0,2045.0,0.0,0.0,4.0,4.0,4.0,4.0,0.0,4.0,4.0,4.0,4.0,2.0,4.0,4.0,4.0,4.0,4.0,4.0
97.0,0.0,4155.897435897437,4106.666666666668,4171.282051282053,4181.538461538463,4180.000000000002,4182.051282051283,3949.230769230771,4172.8205128205145,4178.97435897436,4186.153846153848,4169.743589743592,4182.051282051283,4186.153846153848,4191.794871794873,850.0,2045.0,2046.0,0.0,0.0,4.0,4.0,4.0,4.0,0.0,4.0,4.0,4.0,4.0,2.0,4.0,4.0,4.0,4.0,4.0,4.0
98.0,0.0,4157.94871794872,4109.23076923077,4174.3589743589755,4186.153846153848,4182.564102564104,4190.256410256412,3994.8717948717963,4173.846153846155,4175.384615384617,4186.666666666668,4171.282051282053,4175.897435897437,4185.128205128207,4193.333333333335,868.0,2045.0,2045.0,0.0,0.0,4.0,4.0,4.0,4.0,0.0,4.0,4.0,4.0,4.0,2.0,4.0,4.0,4.0,4.0,4.0,4.0
99.0,0.0,4155.897435897437,4108.71794871795,4172.307692307694,4179.487179487181,4181.0256410256425,4195.384615384617,4068.2051282051298,4171.282051282053,4170.769230769232,4185.128205128207,4171.282051282053,4170.769230769232,4184.102564102565,4190.769230769232,825.0,2045.0,2046.0,0.0,0.0,4.0,4.0,4.0,4.0,0.0,4.0,4.0,4.0,4.0,2.0,4.0,4.0,4.0,4.0,4.0,4.0
100.0,0.0,4166.153846153848,4123.076923076925,4182.051282051283,4190.769230769232,4180.000000000002,4200.512820512822,4114.3589743589755,4179.487179487181,4184.615384615386,4192.8205128205145,4183.076923076925,4188.20512820513,4195.384615384617,4202.051282051283,854.0,2045.0,2047.0,0.0,0.0,4.0,4.0,4.0,4.0,0.0,4.0,4.0,4.0,4.0,2.0,4.0,4.0,4.0,4.0,4.0,4.0
101.0,0.0,4177.435897435899,4132.8205128205145,4191.282051282053,4207.179487179489,4183.076923076925,4203.076923076925,4094.8717948717963,4189.23076923077,4193.333333333335,4193.846153846155,4191.794871794873,4202.564102564104,4207.179487179489,4213.333333333335,850.0,2046.0,2047.0,0.0,0.0,4.0,4.0,4.0,4.0,0.0,4.0,4.0,4.0,4.0,2.0,4.0,4.0,4.0,4.0,4.0,4.0
102.0,0.0,4171.794871794873,4126.153846153848,4187.179487179489,4198.97435897436,4180.000000000002,4197.94871794872,4037.9487179487196,4180.512820512822,4182.564102564104,4186.666666666668,4182.564102564104,4192.307692307694,4202.051282051283,4206.153846153848,868.0,2046.0,2047.0,0.0,0.0,4.0,4.0,4.0,4.0,0.0,4.0,4.0,4.0,4.0,2.0,4.0,4.0,4.0,4.0,4.0,4.0
103.0,0.0,4165.641025641027,4121.0256410256425,4184.615384615386,4191.282051282053,4178.46153846154,4195.897435897437,4030.256410256412,4169.23076923077,4178.46153846154,4188.20512820513,4173.846153846155,4183.589743589745,4188.71794871795,4197.94871794872,825.0,2045.0,2046.0,0.0,0.0,4.0,4.0,4.0,4.0,0.0,4.0,4.0,4.0,4.0,2.0,4.0,4.0,4.0,4.0,4.0,4.0
104.0,0.0,4170.769230769232,4125.128205128207,4186.666666666668,4200.512820512822,4178.97435897436,4199.487179487181,4060.0000000000014,4174.3589743589755,4182.564102564104,4190.769230769232,4177.94871794872,4192.307692307694,4185.128205128207,4203.076923076925,854.0,2044.0,2046.0,0.0,0.0,4.0,4.0,4.0,4.0,0.0,4.0,4.0,4.0,4.0,2.0,4.0,4.0,4.0,4.0,4.0,4.0
105.0,0.0,4176.923076923078,4127.179487179489,4189.743589743592,4203.589743589745,4182.564102564104,4195.384615384617,4068.2051282051298,4183.076923076925,4184.615384615386,4185.641025641027,4182.564102564104,4200.512820512822,4193.333333333335,4208.71794871795,850.0,2045.0,2044.0,0.0,0.0,4.0,4.0,4.0,4.0,0.0,4.0,4.0,4.0,4.0,2.0,4.0,4.0,4.0,4.0,4.0,4.0
106.0,0.0,4175.384615384617,4126.153846153848,4194.3589743589755,4200.000000000002,4183.589743589745,4193.846153846155,4048.2051282051298,4186.153846153848,4187.692307692309,4189.743589743592,4186.153846153848,4202.564102564104,4197.94871794872,4209.23076923077,868.0,2045.0,2045.0,0.0,0.0,4.0,4.0,4.0,4.0,0.0,4.0,4.0,4.0,4.0,2.0,4.0,4.0,4.0,4.0,4.0,4.0
107.0,0.0,4170.769230769232,4127.692307692309,4193.846153846155,4202.051282051283,4178.97435897436,4199.487179487181,4019.487179487181,4185.641025641027,4188.20512820513,4198.97435897436,4186.153846153848,4199.487179487181,4193.846153846155,4208.20512820513,825.0,2044.0,2044.0,0.0,0.0,4.0,4.0,4.0,4.0,0.0,4.0,4.0,4.0,4.0,2.0,4.0,4.0,4.0,4.0,4.0,4.0
108.0,0.0,4167.692307692309,4124.615384615386,4185.128205128207,4198.97435897436,4180.512820512822,4196.410256410258,4044.615384615386,4180.000000000002,4177.435897435899,4192.307692307694,4177.435897435899,4187.179487179489,4184.615384615386,4197.94871794872,854.0,2043.0,2046.0,0.0,0.0,4.0,4.0,4.0,4.0,0.0,4.0,4.0,4.0,4.0,2.0,4.0,4.0,4.0,4.0,4.0,4.0
109.0,0.0,4168.20512820513,4120.000000000002,4180.512820512822,4188.71794871795,4182.051282051283,4187.692307692309,4108.20512820513,4172.8205128205145,4167.692307692309,4182.564102564104,4167.692307692309,4179.487179487181,4180.512820512822,4190.256410256412,850.0,2045.0,2047.0,0.0,0.0,4.0,4.0,4.0,4.0,0.0,4.0,4.0,4.0,4.0,2.0,4.0,4.0,4.0,4.0,4.0,4.0
110.0,0.0,4170.769230769232,4123.076923076925,4186.666666666668,4188.71794871795,4180.000000000002,4188.71794871795,4117.435897435899,4172.8205128205145,4170.769230769232,4184.615384615386,4168.20512820513,4184.102564102565,4183.589743589745,4190.256410256412,868.0,2046.0,2047.0,0.0,0.0,4.0,4.0,4.0,4.0,0.0,4.0,4.0,4.0,4.0,2.0,4.0,4.0,4.0,4.0,4.0,4.0
111.0,0.0,4166.153846153848,4120.000000000002,4185.128205128207,4191.282051282053,4181.538461538463,4189.743589743592,4104.102564102565,4172.8205128205145,4173.333333333335,4187.179487179489,4171.794871794873,4183.589743589745,4180.512820512822,4190.256410256412,825.0,2045.0,2047.0,0.0,0.0,4.0,4.0,4.0,4.0,0.0,4.0,4.0,4.0,4.0,2.0,4.0,4.0,4.0,4.0,4.0,4.0
112.0,0.0,4153.333333333335,4107.692307692309,4172.307692307694,4178.97435897436,4178.97435897436,4177.94871794872,4124.102564102565,4166.666666666668,4169.743589743592,4184.615384615386,4168.71794871795,4171.282051282053,4173.333333333335,4187.692307692309,854.0,2045.0,2047.0,0.0,0.0,4.0,4.0,4.0,4.0,0.0,4.0,4.0,4.0,4.0,2.0,4.0,4.0,4.0,4.0,4.0,4.0
113.0,0.0,4148.20512820513,4106.666666666668,4167.179487179489,4172.8205128205145,4179.487179487181,4172.8205128205145,4100.000000000002,4167.179487179489,4166.666666666668,4183.589743589745,4158.46153846154,4171.282051282053,4167.179487179489,4182.564102564104,850.0,2044.0,2046.0,0.0,0.0,4.0,4.0,4.0,4.0,0.0,4.0,4.0,4.0,4.0,2.0,4.0,4.0,4.0,4.0,4.0,4.0
114.0,0.0,4156.410256410258,4114.871794871797,4173.333333333335,4181.538461538463,4182.564102564104,4178.46153846154,4075.384615384617,4171.794871794873,4168.71794871795,4183.589743589745,4154.871794871797,4186.666666666668,4168.71794871795,4181.538461538463,868.0,2043.0,2047.0,0.0,0.0,4.0,4.0,4.0,4.0,0.0,4.0,4.0,4.0,4.0,2.0,4.0,4.0,4.0,4.0,4.0,4.0
115.0,0.0,4157.94871794872,4109.23076923077,4171.794871794873,4178.46153846154,4180.000000000002,4172.307692307694,4117.435897435899,4165.128205128207,4166.153846153848,4183.589743589745,4159.487179487181,4180.000000000002,4178.97435897436,4186.666666666668,825.0,2043.0,2048.0,0.0,0.0,4.0,4.0,4.0,4.0,0.0,4.0,4.0,4.0,4.0,2.0,4.0,4.0,4.0,4.0,4.0,4.0
116.0,0.0,4150.256410256412,4102.051282051283,4165.641025641027,4167.179487179489,4179.487179487181,4163.589743589745,4111.794871794873,4160.000000000002,4156.410256410258,4184.102564102565,4150.256410256412,4165.641025641027,4175.897435897437,4176.923076923078,854.0,2042.0,2048.0,0.0,0.0,4.0,4.0,4.0,4.0,0.0,4.0,4.0,4.0,4.0,2.0,4.0,4.0,4.0,4.0,4.0,4.0
117.0,0.0,4155.897435897437,4110.256410256412,4170.256410256412,4171.282051282053,4178.46153846154,4166.666666666668,4100.000000000002,4163.076923076925,4152.307692307694,4183.076923076925,4140.512820512822,4178.97435897436,4163.589743589745,4162.564102564104,850.0,2043.0,2047.0,0.0,0.0,4.0,4.0,4.0,4.0,0.0,4.0,4.0,4.0,4.0,2.0,4.0,4.0,4.0,4.0,4.0,4.0
118.0,0.0,4162.564102564104,4104.615384615386,4170.256410256412,4172.307692307694,4180.512820512822,4164.615384615386,4195.897435897437,4163.589743589745,4153.333333333335,4183.589743589745,4148.71794871795,4183.076923076925,4158.97435897436,4161.0256410256425,868.0,2043.0,2048.0,0.0,0.0,4.0,4.0,4.0,4.0,0.0,4.0,4.0,4.0,4.0,2.0,4.0,4.0,4.0,4.0,4.0,4.0
119.0,0.0,4162.051282051283,4093.333333333335,4168.71794871795,4170.256410256412,4182.051282051283,4160.000000000002,4274.871794871797,4162.051282051283,4157.435897435899,4184.102564102565,4154.3589743589755,4170.769230769232,4164.615384615386,4167.179487179489,825.0,2043.0,2048.0,0.0,0.0,4.0,4.0,4.0,4.0,0.0,4.0,4.0,4.0,4.0,2.0,4.0,4.0,4.0,4.0,4.0,4.0
120.0,0.0,4170.256410256412,4112.8205128205145,4181.538461538463,4189.23076923077,4177.94871794872,4173.846153846155,4266.153846153848,4171.282051282053,4173.846153846155,4185.128205128207,4164.615384615386,4184.102564102565,4177.435897435899,4188.71794871795,854.0,2042.0,2048.0,0.0,0.0,4.0,4.0,4.0,4.0,0.0,4.0,4.0,4.0,4.0,2.0,4.0,4.0,4.0,4.0,4.0,4.0
121.0,0.0,4171.794871794873,4124.102564102565,4181.0256410256425,4193.846153846155,4178.46153846154,4180.512820512822,4302.051282051283,4174.3589743589755,4181.538461538463,4186.666666666668,4176.410256410258,4193.846153846155,4181.0256410256425,4200.512820512822,850.0,2042.0,2050.0,0.0,0.0,4.0,4.0,4.0,4.0,0.0,4.0,4.0,4.0,4.0,2.0,4.0,4.0,4.0,4.0,4.0,4.0
122.0,0.0,4155.384615384617,4100.512820512822,4159.487179487181,4171.282051282053,4178.97435897436,4167.179487179489,4334.871794871797,4164.102564102565,4168.20512820513,4185.641025641027,4162.564102564104,4173.846153846155,4164.102564102565,4175.897435897437,868.0,2044.0,2050.0,0.0,0.0,4.0,4.0,4.0,4.0,0.0,4.0,4.0,4.0,4.0,2.0,4.0,4.0,4.0,4.0,4.0,4.0
123.0,0.0,4146.666666666668,4091.7948717948734,4150.769230769232,4162.564102564104,4178.97435897436,4165.128205128207,4244.102564102565,4164.615384615386,4162.051282051283,4184.102564102565,4149.23076923077,4165.641025641027,4157.435897435899,4161.538461538463,825.0,2045.0,2050.0,0.0,0.0,4.0,4.0,4.0,4.0,0.0,4.0,4.0,4.0,4.0,2.0,4.0,4.0,4.0,4.0,4.0,4.0
124.0,0.0,4155.897435897437,4109.743589743592,4160.512820512822,4169.743589743592,4180.000000000002,4176.410256410258,4144.615384615386,4174.871794871797,4172.307692307694,4186.153846153848,4167.179487179489,4179.487179487181,4177.94871794872,4189.23076923077,854.0,2044.0,2052.0,0.0,0.0,4.0,4.0,4.0,4.0,0.0,4.0,4.0,4.0,4.0,2.0,4.0,4.0,4.0,4.0,4.0,4.0
125.0,0.0,4166.153846153848,4122.051282051283,4166.153846153848,4176.923076923078,4178.46153846154,4179.487179487181,4160.000000000002,4175.897435897437,4177.94871794872,4186.153846153848,4181.0256410256425,4186.666666666668,4192.307692307694,4209.23076923077,850.0,2044.0,2053.0,0.0,0.0,4.0,4.0,4.0,4.0,0.0,4.0,4.0,4.0,4.0,2.0,4.0,4.0,4.0,4.0,4.0,4.0
126.0,0.0,4166.666666666668,4119.487179487181,4169.23076923077,4183.076923076925,4180.512820512822,4175.897435897437,4234.871794871797,4172.8205128205145,4177.435897435899,4185.641025641027,4174.871794871797,4185.641025641027,4189.743589743592,4201.0256410256425,868.0,2041.0,2054.0,0.0,0.0,4.0,4.0,4.0,4.0,0.0,4.0,4.0,4.0,4.0,2.0,4.0,4.0,4.0,4.0,4.0,4.0
127.0,0.0,4161.0256410256425,4112.8205128205145,4171.794871794873,4180.512820512822,4178.46153846154,4173.846153846155,4257.435897435899,4173.846153846155,4177.94871794872,4186.153846153848,4173.333333333335,4186.153846153848,4188.20512820513,4195.897435897437,825.0,2043.0,2053.0,0.0,0.0,4.0,4.0,4.0,4.0,0.0,4.0,4.0,4.0,4.0,2.0,4.0,4.0,4.0,4.0,4.0,4.0
128.0,0.0,4151.794871794873,4107.179487179489,4164.102564102565,4170.256410256412,4178.97435897436,4172.8205128205145,4246.666666666668,4175.384615384617,4177.435897435899,4185.128205128207,4173.846153846155,4183.589743589745,4187.692307692309,4187.692307692309,854.0,2044.0,2053.0,0.0,0.0,4.0,4.0,4.0,4.0,0.0,4.0,4.0,4.0,4.0,2.0,4.0,4.0,4.0,4.0,4.0,4.0
0.0,0.0,4144.102564102565,4102.051282051283,4154.3589743589755,4167.179487179489,4180.000000000002,4170.256410256412,4268.71794871795,4174.871794871797,4173.846153846155,4184.615384615386,4170.256410256412,4175.897435897437,4180.512820512822,4176.923076923078,836.0,2044.0,2052.0,0.0,0.0,4.0,4.0,4.0,4.0,0.0,4.0,4.0,4.0,4.0,2.0,4.0,4.0,4.0,4.0,4.0,4.0
1.0,0.0,4141.0256410256425,4092.8205128205145,4151.282051282053,4164.102564102565,4176.410256410258,4166.666666666668,4289.743589743592,4171.282051282053,4168.20512820513,4185.641025641027,4169.23076923077,4173.333333333335,4172.307692307694,4173.846153846155,854.0,2043.0,2053.0,0.0,0.0,4.0,4.0,4.0,4.0,0.0,4.0,4.0,4.0,4.0,2.0,4.0,4.0,4.0,4.0,4.0,4.0
2.0,0.0,4138.46153846154,4095.8974358974374,4153.333333333335,4161.0256410256425,4179.487179487181,4171.794871794873,4284.615384615386,4171.282051282053,4169.743589743592,4186.153846153848,4169.743589743592,4182.564102564104,4177.435897435899,4180.000000000002,838.0,2042.0,2053.0,0.0,0.0,4.0,4.0,4.0,4.0,0.0,4.0,4.0,4.0,4.0,2.0,4.0,4.0,4.0,4.0,4.0,4.0
3.0,0.0,4132.307692307694,4107.179487179489,4155.384615384617,4165.641025641027,4180.512820512822,4177.94871794872,4301.0256410256425,4173.846153846155,4172.307692307694,4186.153846153848,4168.20512820513,4184.615384615386,4185.128205128207,4185.128205128207,855.0,2043.0,2051.0,0.0,0.0,4.0,4.0,4.0,4.0,0.0,4.0,4.0,4.0,4.0,2.0,4.0,4.0,4.0,4.0,4.0,4.0
4.0,0.0,4129.23076923077,4107.692307692309,4159.487179487181,4173.846153846155,4176.410256410258,4178.97435897436,4324.615384615386,4171.282051282053,4168.20512820513,4185.128205128207,4167.179487179489,4182.564102564104,4182.051282051283,4182.051282051283,0.0,2042.0,2051.0,0.0,0.0,4.0,4.0,4.0,4.0,0.0,4.0,4.0,4.0,4.0,2.0,4.0,4.0,4.0,4.0,4.0,4.0
5.0,0.0,4137.435897435899,4111.794871794873,4169.743589743592,4182.051282051283,4178.46153846154,4182.051282051283,4310.769230769232,4173.333333333335,4173.333333333335,4184.102564102565,4170.256410256412,4192.8205128205145,4185.128205128207,4186.666666666668,637.0,2043.0,2052.0,0.0,0.0,4.0,4.0,4.0,4.0,0.0,4.0,4.0,4.0,4.0,2.0,4.0,4.0,4.0,4.0,4.0,4.0
6.0,0.0,4146.153846153848,4121.538461538463,4172.307692307694,4184.615384615386,4181.0256410256425,4178.97435897436,4325.128205128207,4177.435897435899,4183.589743589745,4188.71794871795,4174.871794871797,4199.487179487181,4196.923076923078,4197.94871794872,802.0,2044.0,2051.0,0.0,0.0,4.0,4.0,4.0,4.0,0.0,4.0,4.0,4.0,4.0,2.0,4.0,4.0,4.0,4.0,4.0,4.0
7.0,0.0,4146.153846153848,4122.051282051283,4168.71794871795,4181.538461538463,4180.512820512822,4176.923076923078,4351.282051282053,4177.94871794872,4183.589743589745,4187.692307692309,4179.487179487181,4193.846153846155,4196.410256410258,4201.0256410256425,691.0,2044.0,2050.0,0.0,0.0,4.0,4.0,4.0,4.0,0.0,4.0,4.0,4.0,4.0,2.0,4.0,4.0,4.0,4.0,4.0,4.0
8.0,0.0,4151.282051282053,4124.102564102565,4180.512820512822,4188.20512820513,4178.46153846154,4184.615384615386,4302.564102564104,4186.153846153848,4185.641025641027,4185.128205128207,4185.128205128207,4195.897435897437,4197.435897435899,4207.179487179489,754.0,2044.0,2049.0,0.0,0.0,4.0,4.0,4.0,4.0,0.0,4.0,4.0,4.0,4.0,2.0,4.0,4.0,4.0,4.0,4.0,4.0
9.0,0.0,4167.179487179489,4138.46153846154,4199.487179487181,4204.102564102565,4183.076923076925,4192.8205128205145,4246.666666666668,4202.564102564104,4201.0256410256425,4194.871794871797,4194.871794871797,4211.282051282053,4208.71794871795,4220.512820512822,158.0,2044.0,2048.0,0.0,0.0,4.0,4.0,4.0,4.0,0.0,4.0,4.0,4.0,4.0,2.0,4.0,4.0,4.0,4.0,4.0,4.0
10.0,0.0,4168.20512820513,4137.435897435899,4196.410256410258,4198.97435897436,4187.179487179489,4187.692307692309,4271.282051282053,4204.615384615386,4202.051282051283,4198.46153846154,4197.94871794872,4215.384615384617,4210.256410256412,4220.512820512822,868.0,2044.0,2047.0,0.0,0.0,4.0,4.0,4.0,4.0,0.0,4.0,4.0,4.0,4.0,2.0,4.0,4.0,4.0,4.0,4.0,4.0
11.0,0.0,4152.8205128205145,4120.512820512822,4182.051282051283,4183.076923076925,4178.97435897436,4177.94871794872,4290.769230769232,4190.256410256412,4185.128205128207,4186.666666666668,4183.076923076925,4199.487179487181,4197.94871794872,4207.179487179489,825.0,2044.0,2048.0,0.0,0.0,4.0,4.0,4.0,4.0,0.0,4.0,4.0,4.0,4.0,2.0,4.0,4.0,4.0,4.0,4.0,4.0
12.0,0.0,4157.435897435899,4127.179487179489,4186.666666666668,4193.333333333335,4178.46153846154,4185.641025641027,4218.46153846154,4187.692307692309,4184.102564102565,4182.564102564104,4175.384615384617,4196.410256410258,4198.46153846154,4204.102564102565,854.0,2044.0,2047.0,0.0,0.0,4.0,4.0,4.0,4.0,0.0,4.0,4.0,4.0,4.0,2.0,4.0,4.0,4.0,4.0,4.0,4.0
13.0,0.0,4170.769230769232,4142.564102564104,4192.307692307694,4204.615384615386,4180.000000000002,4192.307692307694,4148.71794871795,4190.256410256412,4190.769230769232,4187.179487179489,4181.0256410256425,4203.589743589745,4204.102564102565,4207.179487179489,850.0,2046.0,2047.0,0.0,0.0,4.0,4.0,4.0,4.0,0.0,4.0,4.0,4.0,4.0,2.0,4.0,4.0,4.0,4.0,4.0,4.0
14.0,0.0,4158.46153846154,4128.71794871795,4175.384615384617,4188.20512820513,4176.410256410258,4183.076923076925,4164.102564102565,4179.487179487181,4176.410256410258,4184.102564102565,4169.743589743592,4189.743589743592,4192.307692307694,4200.000000000002,868.0,2045.0,2047.0,0.0,0.0,4.0,4.0,4.0,4.0,0.0,4.0,4.0,4.0,4.0,2.0,4.0,4.0,4.0,4.0,4.0,4.0
15.0,0.0,4144.615384615386,4111.794871794873,4164.102564102565,4174.3589743589755,4179.487179487181,4174.871794871797,4171.282051282053,4172.307692307694,4161.538461538463,4180.000000000002,4152.307692307694,4176.410256410258,4179.487179487181,4190.256410256412,825.0,2045.0,2047.0,0.0,0.0,4.0,4.0,4.0,4.0,0.0,4.0,4.0,4.0,4.0,2.0,4.0,4.0,4.0,4.0,4.0,4.0
16.0,0.0,4159.487179487181,4124.615384615386,4178.97435897436,4187.692307692309,4180.512820512822,4182.051282051283,4127.179487179489,4182.051282051283,4172.307692307694,4184.102564102565,4162.051282051283,4191.794871794873,4184.615384615386,4193.846153846155,0.0,2046.0,2047.0,0.0,0.0,4.0,4.0,4.0,4.0,0.0,4.0,4.0,4.0,4.0,2.0,4.0,4.0,4.0,4.0,4.0,4.0
17.0,0.0,4170.769230769232,4139.487179487181,4189.743589743592,4200.512820512822,4177.94871794872,4189.23076923077,4146.153846153848,4192.307692307694,4186.666666666668,4186.153846153848,4181.538461538463,4204.615384615386,4194.871794871797,4202.564102564104,0.0,2046.0,2046.0,0.0,0.0,4.0,4.0,4.0,4.0,0.0,4.0,4.0,4.0,4.0,2.0,4.0,4.0,4.0,4.0,4.0,4.0
18.0,0.0,4165.641025641027,4134.871794871797,4184.615384615386,4198.46153846154,4177.435897435899,4189.23076923077,4214.3589743589755,4192.307692307694,4185.641025641027,4184.615384615386,4184.102564102565,4199.487179487181,4196.410256410258,4207.692307692309,0.0,2046.0,2047.0,0.0,0.0,4.0,4.0,4.0,4.0,0.0,4.0,4.0,4.0,4.0,2.0,4.0,4.0,4.0,4.0,4.0,4.0
19.0,0.0,4173.333333333335,4140.000000000002,4189.743589743592,4198.97435897436,4177.94871794872,4198.46153846154,4212.307692307694,4197.435897435899,4190.256410256412,4185.128205128207,4182.051282051283,4206.153846153848,4202.564102564104,4214.3589743589755,0.0,2046.0,2047.0,0.0,0.0,4.0,4.0,4.0,4.0,0.0,4.0,4.0,4.0,4.0,2.0,4.0,4.0,4.0,4.0,4.0,4.0
20.0,0.0,4183.589743589745,4153.333333333335,4201.538461538463,4206.153846153848,4180.000000000002,4203.589743589745,4198.46153846154,4202.051282051283,4198.97435897436,4188.20512820513,4188.20512820513,4218.46153846154,4210.769230769232,4219.487179487181,0.0,2045.0,2047.0,0.0,0.0,4.0,4.0,4.0,4.0,0.0,4.0,4.0,4.0,4.0,2.0,4.0,4.0,4.0,4.0,4.0,4.0
21.0,0.0,4178.46153846154,4153.846153846155,4197.435897435899,4206.153846153848,4177.94871794872,4198.46153846154,4251.794871794873,4194.871794871797,4193.846153846155,4187.179487179489,4190.769230769232,4214.871794871797,4207.692307692309,4219.487179487181,0.0,2046.0,2044.0,0.0,0.0,4.0,4.0,4.0,4.0,0.0,4.0,4.0,4.0,4.0,2.0,4.0,4.0,4.0,4.0,4.0,4.0
22.0,0.0,4171.282051282053,4150.256410256412,4188.71794871795,4201.0256410256425,4180.000000000002,4198.46153846154,4265.641025641027,4186.666666666668,4184.615384615386,4185.128205128207,4182.564102564104,4205.128205128207,4201.0256410256425,4212.307692307694,0.0,2045.0,2043.0,0.0,0.0,4.0,4.0,4.0,4.0,0.0,4.0,4.0,4.0,4.0,2.0,4.0,4.0,4.0,4.0,4.0,4.0
23.0,0.0,4173.846153846155,4154.3589743589755,4188.20512820513,4202.051282051283,4180.512820512822,4202.051282051283,4206.666666666668,4184.615384615386,4184.615384615386,4186.153846153848,4175.384615384617,4203.076923076925,4198.97435897436,4205.128205128207,0.0,2046.0,2044.0,0.0,0.0,4.0,4.0,4.0,4.0,0.0,4.0,4.0,4.0,4.0,2.0,4.0,4.0,4.0,4.0,4.0,4.0
24.0,0.0,4175.384615384617,4153.333333333335,4187.692307692309,4201.538461538463,4177.94871794872,4202.564102564104,4188.20512820513,4182.051282051283,4184.102564102565,4185.641025641027,4176.410256410258,4204.615384615386,4196.923076923078,4205.128205128207,0.0,2045.0,2042.0,0.0,0.0,4.0,4.0,4.0,4.0,0.0,4.0,4.0,4.0,4.0,2.0,4.0,4.0,4.0,4.0,4.0,4.0
25.0,0.0,4179.487179487181,4154.3589743589755,4193.333333333335,4201.0256410256425,4182.051282051283,4203.589743589745,4216.923076923078,4189.743589743592,4188.71794871795,4186.153846153848,4184.615384615386,4211.794871794873,4200.000000000002,4211.282051282053,0.0,2044.0,2042.0,0.0,0.0,4.0,4.0,4.0,4.0,0.0,4.0,4.0,4.0,4.0,2.0,4.0,4.0,4.0,4.0,4.0,4.0
26.0,0.0,4189.23076923077,4163.589743589745,4202.051282051283,4205.128205128207,4178.97435897436,4203.076923076925,4228.71794871795,4200.512820512822,4201.0256410256425,4187.179487179489,4190.769230769232,4218.97435897436,4207.179487179489,4218.46153846154,0.0,2044.0,2041.0,0.0,0.0,4.0,4.0,4.0,4.0,0.0,4.0,4.0,4.0,4.0,2.0,4.0,4.0,4.0,4.0,4.0,4.0
27.0,0.0,4182.051282051283,4160.000000000002,4191.794871794873,4202.564102564104,4176.410256410258,4199.487179487181,4222.051282051283,4196.410256410258,4195.384615384617,4185.641025641027,4185.128205128207,4211.794871794873,4200.000000000002,4213.846153846155,0.0,2044.0,2041.0,0.0,0.0,4.0,4.0,4.0,4.0,0.0,4.0,4.0,4.0,4.0,2.0,4.0,4.0,4.0,4.0,4.0,4.0
28.0,0.0,4172.307692307694,4150.769230769232,4181.538461538463,4198.97435897436,4180.512820512822,4199.487179487181,4196.410256410258,4191.794871794873,4187.692307692309,4185.128205128207,4181.0256410256425,4205.128205128207,4194.3589743589755,4205.128205128207,0.0,2045.0,2042.0,0.0,0.0,4.0,4.0,4.0,4.0,0.0,4.0,4.0,4.0,4.0,2.0,4.0,4.0,4.0,4.0,4.0,4.0
29.0,0.0,4178.97435897436,4156.923076923078,4192.307692307694,4203.589743589745,4176.923076923078,4199.487179487181,4145.641025641027,4196.410256410258,4193.846153846155,4185.128205128207,4184.102564102565,4214.3589743589755,4202.051282051283,4210.256410256412,0.0,2044.0,2041.0,0.0,0.0,4.0,4.0,4.0,4.0,0.0,4.0,4.0,4.0,4.0,2.0,4.0,4.0,4.0,4.0,4.0,4.0
30.0,0.0,4185.641025641027,4161.538461538463,4197.435897435899,4206.153846153848,4175.897435897437,4200.000000000002,4112.8205128205145,4191.282051282053,4192.8205128205145,4184.615384615386,4177.435897435899,4213.333333333335,4196.923076923078,4213.333333333335,0.0,2044.0,2041.0,0.0,0.0,4.0,4.0,4.0,4.0,0.0,4.0,4.0,4.0,4.0,2.0,4.0,4.0,4.0,4.0,4.0,4.0
31.0,0.0,4183.076923076925,4155.384615384617,4189.23076923077,4201.538461538463,4176.923076923078,4196.410256410258,4137.435897435899,4181.0256410256425,4182.051282051283,4185.128205128207,4169.23076923077,4202.564102564104,4189.23076923077,4204.102564102565,0.0,2044.0,2043.0,0.0,0.0,4.0,4.0,4.0,4.0,0.0,4.0,4.0,4.0,4.0,2.0,4.0,4.0,4.0,4.0,4.0,4.0
32.0,0.0,4181.538461538463,4155.897435897437,4190.769230769232,4202.564102564104,4177.435897435899,4190.256410256412,4171.794871794873,4185.641025641027,4184.102564102565,4186.153846153848,4180.000000000002,4204.102564102565,4198.97435897436,4207.692307692309,0.0,2044.0,2043.0,0.0,0.0,4.0,4.0,4.0,4.0,0.0,4.0,4.0,4.0,4.0,2.0,4.0,4.0,4.0,4.0,4.0,4.0
33.0,0.0,4180.000000000002,4158.46153846154,4192.307692307694,4205.641025641027,4181.0256410256425,4192.307692307694,4188.20512820513,4190.256410256412,4189.743589743592,4185.641025641027,4185.641025641027,4207.692307692309,4202.051282051283,4213.846153846155,0.0,2043.0,2041.0,0.0,0.0,4.0,4.0,4.0,4.0,0.0,4.0,4.0,4.0,4.0,2.0,4.0,4.0,4.0,4.0,4.0,4.0
34.0,0.0,4171.794871794873,4152.307692307694,4185.128205128207,4197.435897435899,4180.512820512822,4194.3589743589755,4214.3589743589755,4184.102564102565,4185.128205128207,4185.128205128207,4171.282051282053,4200.000000000002,4187.692307692309,4202.051282051283,0.0,2044.0,2042.0,0.0,0.0,4.0,4.0,4.0,4.0,0.0,4.0,4.0,4.0,4.0,2.0,4.0,4.0,4.0,4.0,4.0,4.0
35.0,0.0,4166.666666666668,4147.692307692309,4181.0256410256425,4191.282051282053,4179.487179487181,4190.769230769232,4200.000000000002,4185.128205128207,4184.102564102565,4184.102564102565,4169.743589743592,4196.410256410258,4181.538461538463,4191.282051282053,0.0,2044.0,2042.0,0.0,0.0,4.0,4.0,4.0,4.0,0.0,4.0,4.0,4.0,4.0,2.0,4.0,4.0,4.0,4.0,4.0,4.0
36.0,0.0,4169.23076923077,4149.23076923077,4185.128205128207,4195.384615384617,4177.94871794872,4188.71794871795,4134.3589743589755,4194.3589743589755,4190.769230769232,4183.076923076925,4181.538461538463,4205.641025641027,4185.641025641027,4196.923076923078,0.0,2045.0,2042.0,0.0,0.0,4.0,4.0,4.0,4.0,0.0,4.0,4.0,4.0,4.0,2.0,4.0,4.0,4.0,4.0,4.0,4.0
37.0,0.0,4178.97435897436,4161.538461538463,4195.897435897437,4203.589743589745,4178.46153846154,4189.743589743592,4112.307692307694,4201.538461538463,4199.487179487181,4184.615384615386,4188.20512820513,4217.435897435899,4197.435897435899,4207.692307692309,0.0,2045.0,2041.0,0.0,0.0,4.0,4.0,4.0,4.0,0.0,4.0,4.0,4.0,4.0,2.0,4.0,4.0,4.0,4.0,4.0,4.0
38.0,0.0,4186.666666666668,4169.743589743592,4202.051282051283,4207.692307692309,4180.000000000002,4191.282051282053,4130.769230769232,4198.97435897436,4203.076923076925,4186.153846153848,4192.307692307694,4217.94871794872,4211.794871794873,4209.743589743592,0.0,2046.0,2042.0,0.0,0.0,4.0,4.0,4.0,4.0,0.0,4.0,4.0,4.0,4.0,2.0,4.0,4.0,4.0,4.0,4.0,4.0
39.0,0.0,4188.20512820513,4170.769230769232,4202.051282051283,4213.333333333335,4176.923076923078,4193.333333333335,4123.589743589745,4197.435897435899,4203.076923076925,4185.641025641027,4200.512820512822,4220.000000000002,4212.8205128205145,4209.743589743592,0.0,2044.0,2041.0,0.0,0.0,4.0,4.0,4.0,4.0,0.0,4.0,4.0,4.0,4.0,2.0,4.0,4.0,4.0,4.0,4.0,4.0
40.0,0.0,4188.20512820513,4169.743589743592,4201.538461538463,4213.846153846155,4181.0256410256425,4192.8205128205145,4100.000000000002,4200.512820512822,4203.589743589745,4186.153846153848,4202.051282051283,4226.666666666668,4205.641025641027,4209.743589743592,0.0,2045.0,2042.0,0.0,0.0,4.0,4.0,4.0,4.0,0.0,4.0,4.0,4.0,4.0,2.0,4.0,4.0,4.0,4.0,4.0,4.0
41.0,0.0,4182.564102564104,4160.512820512822,4198.46153846154,4199.487179487181,4180.512820512822,4186.153846153848,4095.8974358974374,4193.846153846155,4198.97435897436,4185.128205128207,4190.769230769232,4221.538461538463,4201.538461538463,4205.128205128207,0.0,2046.0,2044.0,0.0,0.0,4.0,4.0,4.0,4.0,0.0,4.0,4.0,4.0,4.0,2.0,4.0,4.0,4.0,4.0,4.0,4.0
42.0,0.0,4178.46153846154,4160.512820512822,4196.410256410258,4197.435897435899,4174.871794871797,4186.153846153848,4135.384615384617,4190.769230769232,4198.97435897436,4183.076923076925,4190.256410256412,4219.487179487181,4202.051282051283,4200.000000000002,0.0,2046.0,2045.0,0.0,0.0,4.0,4.0,4.0,4.0,0.0,4.0,4.0,4.0,4.0,2.0,4.0,4.0,4.0,4.0,4.0,4.0
