COUNTER,INTERPOLATED,AF3,F7,F3,FC5,T7,P7,O1,O2,P8,T8,FC6,F4,F8,AF4,RAW_CQ,GYROX,GYROY,MARKER,SYNC,CQ_AF3,CQ_F7,CQ_F3,CQ_FC5,CQ_T7,CQ_P7,CQ_O1,CQ_O2,CQ_P8,CQ_T8,CQ_FC6,CQ_F4,CQ_F8,CQ_AF4,CQ_CMS,CQ_DRL
76.0,0.0,4129.23076923077,4154.3589743589755,4204.615384615386,4133.333333333335,4226.666666666668,4189.23076923077,4196.410256410258,4210.769230769232,4215.897435897437,4185.641025641027,4132.307692307694,4178.97435897436,4133.333333333335,4128.71794871795,854.0,2047.0,2048.0,0.0,0.0,0.0,0.0,0.0,0.0,0.0,0.0,0.0,0.0,0.0,0.0,4.0,0.0,0.0,0.0,4.0,4.0
77.0,0.0,4130.256410256412,4154.3589743589755,4278.97435897436,4128.71794871795,4238.97435897436,4186.666666666668,4207.692307692309,4209.743589743592,4211.794871794873,4185.128205128207,4132.307692307694,4182.564102564104,4129.743589743592,4126.666666666668,311.0,2047.0,2048.0,0.0,0.0,0.0,0.0,0.0,0.0,0.0,0.0,0.0,0.0,0.0,0.0,4.0,3.0,0.0,0.0,4.0,4.0
78.0,0.0,4134.871794871797,4152.307692307694,4156.410256410258,4130.769230769232,4175.384615384617,4180.000000000002,4151.794871794873,4216.923076923078,4225.128205128207,4185.128205128207,4139.487179487181,4186.153846153848,4139.487179487181,4133.333333333335,860.0,2047.0,2048.0,0.0,0.0,0.0,0.0,0.0,0.0,0.0,0.0,0.0,0.0,0.0,0.0,4.0,3.0,0.0,0.0,4.0,4.0
79.0,0.0,4137.94871794872,4153.846153846155,4056.9230769230785,4138.97435897436,4141.538461538463,4183.076923076925,4128.71794871795,4223.589743589745,4231.794871794873,4185.641025641027,4145.128205128207,4187.692307692309,4146.153846153848,4139.487179487181,827.0,2047.0,2048.0,0.0,0.0,0.0,0.0,0.0,0.0,0.0,0.0,0.0,0.0,0.0,0.0,4.0,3.0,0.0,0.0,4.0,4.0
80.0,0.0,4144.102564102565,4159.487179487181,4122.564102564104,4141.538461538463,4178.46153846154,4188.20512820513,4156.923076923078,4215.384615384617,4221.0256410256425,4185.641025641027,4151.282051282053,4191.282051282053,4156.923076923078,4147.692307692309,854.0,2047.0,2048.0,0.0,0.0,0.0,0.0,0.0,0.0,0.0,0.0,0.0,0.0,0.0,0.0,4.0,3.0,0.0,0.0,4.0,4.0
81.0,0.0,4145.128205128207,4154.3589743589755,4209.23076923077,4136.410256410258,4213.333333333335,4183.589743589745,4185.128205128207,4207.179487179489,4213.333333333335,4185.128205128207,4146.153846153848,4184.102564102565,4161.0256410256425,4145.128205128207,311.0,2047.0,2048.0,0.0,0.0,0.0,0.0,0.0,0.0,0.0,0.0,0.0,0.0,0.0,0.0,4.0,3.0,0.0,0.0,4.0,4.0
82.0,0.0,4145.641025641027,4149.743589743592,4193.333333333335,4137.435897435899,4194.3589743589755,4182.564102564104,4175.384615384617,4212.307692307694,4223.589743589745,4184.615384615386,4148.20512820513,4191.282051282053,4167.179487179489,4146.666666666668,860.0,2047.0,2048.0,0.0,0.0,0.0,0.0,0.0,0.0,0.0,0.0,0.0,0.0,0.0,0.0,4.0,3.0,0.0,0.0,4.0,4.0
83.0,0.0,4148.71794871795,4152.307692307694,4093.333333333335,4143.076923076925,4149.743589743592,4192.8205128205145,4138.46153846154,4220.000000000002,4237.94871794872,4183.589743589745,4164.615384615386,4195.897435897437,4174.871794871797,4156.410256410258,827.0,2047.0,2048.0,0.0,0.0,0.0,0.0,0.0,0.0,0.0,0.0,0.0,0.0,0.0,0.0,4.0,3.0,0.0,0.0,4.0,4.0
84.0,0.0,4145.641025641027,4156.410256410258,4061.0256410256425,4141.538461538463,4151.282051282053,4197.94871794872,4127.692307692309,4220.512820512822,4232.307692307694,4184.615384615386,4161.0256410256425,4191.282051282053,4160.512820512822,4149.743589743592,854.0,2047.0,2048.0,0.0,0.0,0.0,0.0,0.0,0.0,0.0,0.0,0.0,0.0,0.0,0.0,4.0,3.0,0.0,0.0,4.0,4.0
85.0,0.0,4146.153846153848,4164.615384615386,4176.923076923078,4142.564102564104,4203.076923076925,4195.897435897437,4174.871794871797,4218.46153846154,4219.487179487181,4185.641025641027,4144.102564102565,4191.794871794873,4146.666666666668,4138.46153846154,311.0,2047.0,2048.0,0.0,0.0,0.0,0.0,0.0,0.0,0.0,0.0,0.0,0.0,0.0,0.0,4.0,3.0,0.0,0.0,4.0,4.0
86.0,0.0,4153.333333333335,4173.333333333335,4269.743589743592,4149.23076923077,4229.23076923077,4197.94871794872,4214.871794871797,4218.46153846154,4223.076923076925,4185.128205128207,4148.20512820513,4186.153846153848,4154.871794871797,4141.538461538463,860.0,2047.0,2048.0,0.0,0.0,0.0,0.0,0.0,0.0,0.0,0.0,0.0,0.0,0.0,0.0,4.0,3.0,0.0,0.0,4.0,4.0
87.0,0.0,4151.282051282053,4169.743589743592,4193.846153846155,4147.179487179489,4190.769230769232,4200.000000000002,4186.153846153848,4217.435897435899,4233.333333333335,4185.128205128207,4156.410256410258,4188.71794871795,4156.923076923078,4143.076923076925,827.0,2047.0,2048.0,0.0,0.0,0.0,0.0,0.0,0.0,0.0,0.0,0.0,0.0,0.0,0.0,4.0,3.0,0.0,0.0,4.0,4.0
88.0,0.0,4145.128205128207,4162.564102564104,4065.1282051282064,4141.0256410256425,4145.641025641027,4189.23076923077,4135.384615384617,4217.435897435899,4234.871794871797,4186.153846153848,4153.846153846155,4186.153846153848,4152.8205128205145,4142.051282051283,854.0,2047.0,2048.0,0.0,0.0,0.0,0.0,0.0,0.0,0.0,0.0,0.0,0.0,0.0,0.0,4.0,3.0,0.0,0.0,4.0,4.0
89.0,0.0,4148.71794871795,4172.8205128205145,4085.1282051282064,4143.076923076925,4163.589743589745,4181.0256410256425,4141.0256410256425,4216.410256410258,4229.743589743592,4185.641025641027,4146.153846153848,4182.564102564104,4155.897435897437,4145.641025641027,311.0,2047.0,2048.0,0.0,0.0,0.0,0.0,0.0,0.0,0.0,0.0,0.0,0.0,0.0,0.0,4.0,3.0,0.0,0.0,4.0,4.0
90.0,0.0,4148.71794871795,4171.794871794873,4198.97435897436,4141.0256410256425,4207.692307692309,4191.794871794873,4185.641025641027,4215.897435897437,4229.743589743592,4184.615384615386,4140.000000000002,4188.71794871795,4151.794871794873,4140.512820512822,860.0,2047.0,2048.0,0.0,0.0,0.0,0.0,0.0,0.0,0.0,0.0,0.0,0.0,0.0,0.0,4.0,3.0,0.0,0.0,4.0,4.0
91.0,0.0,4138.97435897436,4152.307692307694,4216.923076923078,4136.410256410258,4202.564102564104,4195.384615384617,4190.256410256412,4215.897435897437,4232.307692307694,4185.128205128207,4142.051282051283,4183.589743589745,4145.128205128207,4130.256410256412,827.0,2047.0,2048.0,0.0,0.0,0.0,0.0,0.0,0.0,0.0,0.0,0.0,0.0,0.0,0.0,4.0,3.0,0.0,0.0,4.0,4.0
92.0,0.0,4143.589743589745,4157.94871794872,4145.641025641027,4143.076923076925,4170.769230769232,4186.666666666668,4155.384615384617,4213.846153846155,4232.8205128205145,4185.128205128207,4153.333333333335,4187.692307692309,4152.8205128205145,4140.000000000002,854.0,2047.0,2048.0,0.0,0.0,0.0,0.0,0.0,0.0,0.0,0.0,0.0,0.0,0.0,0.0,4.0,3.0,0.0,0.0,4.0,4.0
93.0,0.0,4148.71794871795,4176.923076923078,4083.589743589745,4143.589743589745,4154.871794871797,4186.666666666668,4138.97435897436,4214.871794871797,4235.384615384617,4186.153846153848,4158.97435897436,4188.71794871795,4159.487179487181,4152.307692307694,311.0,2047.0,2048.0,0.0,0.0,0.0,0.0,0.0,0.0,0.0,0.0,0.0,0.0,0.0,0.0,4.0,3.0,0.0,0.0,4.0,4.0
94.0,0.0,4138.46153846154,4172.307692307694,4089.230769230771,4132.307692307694,4166.153846153848,4189.23076923077,4150.256410256412,4215.384615384617,4235.897435897437,4186.153846153848,4150.256410256412,4182.051282051283,4155.897435897437,4146.153846153848,860.0,2047.0,2048.0,0.0,0.0,0.0,0.0,0.0,0.0,0.0,0.0,0.0,0.0,0.0,0.0,4.0,3.0,0.0,0.0,4.0,4.0
95.0,0.0,4134.3589743589755,4158.97435897436,4173.846153846155,4132.8205128205145,4205.641025641027,4184.615384615386,4178.97435897436,4215.384615384617,4234.871794871797,4185.128205128207,4142.051282051283,4184.102564102565,4151.282051282053,4138.46153846154,827.0,2047.0,2048.0,0.0,0.0,0.0,0.0,0.0,0.0,0.0,0.0,0.0,0.0,0.0,0.0,4.0,3.0,0.0,0.0,4.0,4.0
96.0,0.0,4130.769230769232,4152.307692307694,4251.282051282053,4136.410256410258,4232.307692307694,4182.564102564104,4210.769230769232,4216.410256410258,4232.8205128205145,4184.615384615386,4135.384615384617,4177.94871794872,4140.512820512822,4132.307692307694,854.0,2047.0,2048.0,0.0,0.0,0.0,0.0,0.0,0.0,0.0,0.0,0.0,0.0,0.0,0.0,4.0,3.0,0.0,0.0,4.0,4.0
97.0,0.0,4126.153846153848,4143.076923076925,4198.97435897436,4127.692307692309,4196.923076923078,4184.102564102565,4184.102564102565,4216.923076923078,4234.3589743589755,4185.128205128207,4133.846153846155,4181.0256410256425,4137.435897435899,4128.71794871795,311.0,2047.0,2048.0,0.0,0.0,0.0,0.0,0.0,0.0,0.0,0.0,0.0,0.0,0.0,0.0,4.0,3.0,0.0,0.0,4.0,4.0
98.0,0.0,4126.666666666668,4137.94871794872,4041.0256410256425,4121.538461538463,4128.71794871795,4175.384615384617,4104.615384615386,4216.410256410258,4238.46153846154,4184.615384615386,4143.589743589745,4183.076923076925,4150.769230769232,4132.307692307694,860.0,2047.0,2048.0,0.0,0.0,0.0,0.0,0.0,0.0,0.0,0.0,0.0,0.0,0.0,0.0,4.0,3.0,0.0,0.0,4.0,4.0
99.0,0.0,4127.179487179489,4135.897435897437,4001.5384615384633,4120.000000000002,4131.282051282053,4169.743589743592,4088.71794871795,4210.769230769232,4236.923076923078,4184.615384615386,4148.71794871795,4178.46153846154,4159.487179487181,4138.46153846154,827.0,2047.0,2048.0,0.0,0.0,0.0,0.0,0.0,0.0,0.0,0.0,0.0,0.0,0.0,0.0,4.0,3.0,0.0,0.0,4.0,4.0
100.0,0.0,4126.153846153848,4133.333333333335,4163.076923076925,4118.46153846154,4208.20512820513,4177.94871794872,4164.615384615386,4201.538461538463,4230.256410256412,4185.641025641027,4141.0256410256425,4184.102564102565,4154.871794871797,4138.46153846154,854.0,2047.0,2048.0,0.0,0.0,0.0,0.0,0.0,0.0,0.0,0.0,0.0,0.0,0.0,0.0,4.0,3.0,0.0,0.0,4.0,4.0
101.0,0.0,4127.179487179489,4143.076923076925,4286.153846153848,4125.128205128207,4237.435897435899,4186.153846153848,4215.897435897437,4204.102564102565,4232.307692307694,4185.128205128207,4139.487179487181,4181.0256410256425,4149.23076923077,4137.94871794872,311.0,2047.0,2048.0,0.0,0.0,0.0,0.0,0.0,0.0,0.0,0.0,0.0,0.0,0.0,0.0,4.0,3.0,0.0,0.0,4.0,4.0
102.0,0.0,4136.410256410258,4155.897435897437,4207.692307692309,4138.97435897436,4191.794871794873,4187.179487179489,4182.051282051283,4217.94871794872,4247.179487179489,4185.128205128207,4154.871794871797,4185.641025641027,4155.384615384617,4150.769230769232,860.0,2047.0,2048.0,0.0,0.0,0.0,0.0,0.0,0.0,0.0,0.0,0.0,0.0,0.0,0.0,4.0,3.0,0.0,0.0,4.0,4.0
103.0,0.0,4146.153846153848,4164.615384615386,4077.435897435899,4147.179487179489,4150.256410256412,4185.128205128207,4132.307692307694,4220.000000000002,4251.794871794873,4186.153846153848,4166.153846153848,4191.794871794873,4170.769230769232,4162.051282051283,827.0,2047.0,2048.0,0.0,0.0,0.0,0.0,0.0,0.0,0.0,0.0,0.0,0.0,0.0,0.0,4.0,3.0,0.0,0.0,4.0,4.0
104.0,0.0,4149.23076923077,4168.71794871795,4098.46153846154,4144.615384615386,4167.692307692309,4183.076923076925,4138.97435897436,4212.307692307694,4243.589743589745,4184.615384615386,4157.94871794872,4186.153846153848,4174.871794871797,4157.94871794872,854.0,2047.0,2048.0,0.0,0.0,0.0,0.0,0.0,0.0,0.0,0.0,0.0,0.0,0.0,0.0,4.0,3.0,0.0,0.0,4.0,4.0
105.0,0.0,4150.769230769232,4165.641025641027,4221.538461538463,4144.615384615386,4211.794871794873,4182.051282051283,4179.487179487181,4213.333333333335,4242.051282051283,4184.102564102565,4149.743589743592,4187.179487179489,4165.128205128207,4153.333333333335,311.0,2047.0,2048.0,0.0,0.0,0.0,0.0,0.0,0.0,0.0,0.0,0.0,0.0,0.0,0.0,4.0,3.0,0.0,0.0,4.0,4.0
106.0,0.0,4152.307692307694,4160.000000000002,4242.564102564104,4149.743589743592,4207.179487179489,4184.615384615386,4188.20512820513,4216.410256410258,4246.153846153848,4186.153846153848,4158.46153846154,4185.128205128207,4171.794871794873,4159.487179487181,860.0,2047.0,2048.0,0.0,0.0,0.0,0.0,0.0,0.0,0.0,0.0,0.0,0.0,0.0,0.0,4.0,3.0,0.0,0.0,4.0,4.0
107.0,0.0,4152.307692307694,4155.897435897437,4126.666666666668,4143.076923076925,4161.0256410256425,4183.076923076925,4148.71794871795,4219.487179487181,4250.769230769232,4186.666666666668,4166.666666666668,4189.743589743592,4183.076923076925,4160.000000000002,827.0,2047.0,2048.0,0.0,0.0,0.0,0.0,0.0,0.0,0.0,0.0,0.0,0.0,0.0,0.0,4.0,3.0,0.0,0.0,4.0,4.0
108.0,0.0,4147.692307692309,4159.487179487181,4034.8717948717963,4129.743589743592,4136.923076923078,4172.307692307694,4109.23076923077,4219.487179487181,4249.743589743592,4184.102564102565,4159.487179487181,4189.743589743592,4167.179487179489,4150.769230769232,854.0,2047.0,2048.0,0.0,0.0,0.0,0.0,0.0,0.0,0.0,0.0,0.0,0.0,0.0,0.0,4.0,3.0,0.0,0.0,4.0,4.0
109.0,0.0,4142.051282051283,4165.641025641027,4105.128205128207,4125.641025641027,4171.282051282053,4172.8205128205145,4133.333333333335,4207.692307692309,4236.410256410258,4184.102564102565,4148.20512820513,4179.487179487181,4151.282051282053,4146.153846153848,311.0,2047.0,2048.0,0.0,0.0,0.0,0.0,0.0,0.0,0.0,0.0,0.0,0.0,0.0,0.0,4.0,3.0,0.0,0.0,4.0,4.0
110.0,0.0,4138.97435897436,4161.0256410256425,4252.8205128205145,4125.128205128207,4230.256410256412,4186.153846153848,4198.46153846154,4199.487179487181,4228.71794871795,4185.641025641027,4144.102564102565,4187.179487179489,4154.3589743589755,4145.128205128207,860.0,2047.0,2048.0,0.0,0.0,0.0,0.0,0.0,0.0,0.0,0.0,0.0,0.0,0.0,0.0,4.0,3.0,0.0,0.0,4.0,4.0
111.0,0.0,4135.897435897437,4155.384615384617,4261.538461538463,4123.589743589745,4224.102564102565,4188.71794871795,4210.769230769232,4203.589743589745,4238.97435897436,4185.128205128207,4145.641025641027,4185.641025641027,4155.897435897437,4142.564102564104,827.0,2047.0,2048.0,0.0,0.0,0.0,0.0,0.0,0.0,0.0,0.0,0.0,0.0,0.0,0.0,4.0,3.0,0.0,0.0,4.0,4.0
112.0,0.0,4143.076923076925,4165.641025641027,4120.000000000002,4129.23076923077,4159.487179487181,4184.102564102565,4154.3589743589755,4209.23076923077,4248.20512820513,4184.615384615386,4150.256410256412,4184.102564102565,4154.3589743589755,4147.179487179489,854.0,2047.0,2048.0,0.0,0.0,0.0,0.0,0.0,0.0,0.0,0.0,0.0,0.0,0.0,0.0,4.0,3.0,0.0,0.0,4.0,4.0
113.0,0.0,4156.410256410258,4180.000000000002,4036.9230769230785,4133.846153846155,4132.307692307694,4182.051282051283,4114.3589743589755,4211.282051282053,4246.666666666668,4185.128205128207,4153.846153846155,4190.256410256412,4166.666666666668,4152.307692307694,311.0,2047.0,2048.0,0.0,0.0,0.0,0.0,0.0,0.0,0.0,0.0,0.0,0.0,0.0,0.0,4.0,3.0,0.0,0.0,4.0,4.0
114.0,0.0,4155.384615384617,4182.051282051283,4120.000000000002,4135.384615384617,4176.923076923078,4183.076923076925,4143.589743589745,4211.794871794873,4246.666666666668,4185.128205128207,4152.307692307694,4182.564102564104,4170.256410256412,4153.333333333335,860.0,2047.0,2048.0,0.0,0.0,0.0,0.0,0.0,0.0,0.0,0.0,0.0,0.0,0.0,0.0,4.0,3.0,0.0,0.0,4.0,4.0
115.0,0.0,4147.692307692309,4175.384615384617,4240.000000000002,4143.589743589745,4222.564102564104,4194.3589743589755,4193.333333333335,4213.846153846155,4249.743589743592,4184.615384615386,4151.794871794873,4186.153846153848,4161.538461538463,4157.435897435899,827.0,2047.0,2048.0,0.0,0.0,0.0,0.0,0.0,0.0,0.0,0.0,0.0,0.0,0.0,0.0,4.0,3.0,0.0,0.0,4.0,4.0
116.0,0.0,4145.128205128207,4167.179487179489,4227.179487179489,4143.589743589745,4204.615384615386,4201.0256410256425,4193.846153846155,4216.923076923078,4251.282051282053,4184.102564102565,4153.333333333335,4189.23076923077,4166.153846153848,4154.3589743589755,854.0,2047.0,2048.0,0.0,0.0,0.0,0.0,0.0,0.0,0.0,0.0,0.0,0.0,0.0,0.0,4.0,3.0,0.0,0.0,4.0,4.0
117.0,0.0,4148.71794871795,4167.179487179489,4117.94871794872,4135.897435897437,4160.512820512822,4189.23076923077,4147.179487179489,4217.435897435899,4250.769230769232,4184.615384615386,4153.333333333335,4190.769230769232,4172.8205128205145,4146.666666666668,311.0,2047.0,2048.0,0.0,0.0,0.0,0.0,0.0,0.0,0.0,0.0,0.0,0.0,0.0,0.0,4.0,3.0,0.0,0.0,4.0,4.0
118.0,0.0,4150.769230769232,4170.256410256412,4053.846153846155,4133.846153846155,4143.076923076925,4183.076923076925,4120.000000000002,4216.923076923078,4250.256410256412,4186.153846153848,4153.846153846155,4194.871794871797,4167.179487179489,4150.769230769232,860.0,2047.0,2048.0,0.0,0.0,0.0,0.0,0.0,0.0,0.0,0.0,0.0,0.0,0.0,0.0,4.0,3.0,0.0,0.0,4.0,4.0
119.0,0.0,4149.23076923077,4170.256410256412,4103.589743589745,4135.897435897437,4167.692307692309,4189.23076923077,4149.23076923077,4221.538461538463,4253.333333333335,4185.641025641027,4156.923076923078,4186.666666666668,4167.179487179489,4154.3589743589755,827.0,2047.0,2048.0,0.0,0.0,0.0,0.0,0.0,0.0,0.0,0.0,0.0,0.0,0.0,0.0,4.0,3.0,0.0,0.0,4.0,4.0
120.0,0.0,4148.20512820513,4173.333333333335,4242.051282051283,4136.923076923078,4224.615384615386,4188.71794871795,4198.97435897436,4217.435897435899,4250.769230769232,4185.128205128207,4153.846153846155,4188.71794871795,4165.128205128207,4144.102564102565,854.0,2047.0,2048.0,0.0,0.0,0.0,0.0,0.0,0.0,0.0,0.0,0.0,0.0,0.0,0.0,4.0,3.0,0.0,0.0,4.0,4.0
121.0,0.0,4139.487179487181,4165.641025641027,4292.307692307694,4133.846153846155,4238.97435897436,4184.102564102565,4214.871794871797,4209.743589743592,4247.179487179489,4185.641025641027,4147.179487179489,4186.153846153848,4159.487179487181,4136.923076923078,311.0,2047.0,2048.0,0.0,0.0,0.0,0.0,0.0,0.0,0.0,0.0,0.0,0.0,0.0,0.0,4.0,3.0,0.0,0.0,4.0,4.0
122.0,0.0,4138.97435897436,4153.333333333335,4154.871794871797,4138.46153846154,4171.794871794873,4185.128205128207,4166.153846153848,4222.051282051283,4258.46153846154,4186.153846153848,4158.97435897436,4187.179487179489,4170.769230769232,4151.282051282053,860.0,2047.0,2048.0,0.0,0.0,0.0,0.0,0.0,0.0,0.0,0.0,0.0,0.0,0.0,0.0,4.0,3.0,0.0,0.0,4.0,4.0
123.0,0.0,4149.743589743592,4153.333333333335,4007.1794871794887,4144.102564102565,4109.743589743592,4184.615384615386,4101.0256410256425,4230.256410256412,4267.692307692309,4184.615384615386,4169.23076923077,4196.923076923078,4180.000000000002,4163.076923076925,827.0,2047.0,2048.0,0.0,0.0,0.0,0.0,0.0,0.0,0.0,0.0,0.0,0.0,0.0,0.0,4.0,3.0,0.0,0.0,4.0,4.0
124.0,0.0,4145.128205128207,4154.3589743589755,4057.435897435899,4138.97435897436,4147.692307692309,4188.71794871795,4117.435897435899,4218.46153846154,4261.538461538463,4184.102564102565,4157.435897435899,4188.71794871795,4170.256410256412,4153.846153846155,854.0,2047.0,2048.0,0.0,0.0,0.0,0.0,0.0,0.0,0.0,0.0,0.0,0.0,0.0,0.0,4.0,3.0,0.0,0.0,4.0,4.0
125.0,0.0,4137.435897435899,4158.97435897436,4245.128205128207,4138.46153846154,4234.871794871797,4198.97435897436,4204.102564102565,4217.94871794872,4258.97435897436,4184.102564102565,4149.743589743592,4186.666666666668,4166.666666666668,4150.256410256412,311.0,2047.0,2048.0,0.0,0.0,0.0,0.0,0.0,0.0,0.0,0.0,0.0,0.0,0.0,0.0,4.0,3.0,0.0,0.0,4.0,4.0
126.0,0.0,4148.20512820513,4164.102564102565,4303.589743589745,4144.102564102565,4240.000000000002,4199.487179487181,4230.769230769232,4227.179487179489,4264.615384615386,4184.615384615386,4158.46153846154,4188.20512820513,4180.000000000002,4161.538461538463,860.0,2047.0,2048.0,0.0,0.0,0.0,0.0,0.0,0.0,0.0,0.0,0.0,0.0,0.0,0.0,4.0,3.0,0.0,0.0,4.0,4.0
127.0,0.0,4152.307692307694,4155.384615384617,4161.538461538463,4143.076923076925,4170.769230769232,4186.153846153848,4156.410256410258,4217.435897435899,4262.564102564104,4185.641025641027,4157.435897435899,4187.692307692309,4182.564102564104,4165.641025641027,827.0,2047.0,2048.0,0.0,0.0,0.0,0.0,0.0,0.0,0.0,0.0,0.0,0.0,0.0,0.0,4.0,3.0,0.0,0.0,4.0,4.0
128.0,0.0,4143.589743589745,4147.179487179489,4041.5384615384633,4136.923076923078,4136.410256410258,4182.051282051283,4106.153846153848,4210.769230769232,4258.97435897436,4185.128205128207,4153.846153846155,4192.8205128205145,4174.871794871797,4164.102564102565,854.0,2047.0,2048.0,0.0,0.0,0.0,0.0,4.0,0.0,0.0,0.0,0.0,0.0,0.0,0.0,4.0,3.0,0.0,0.0,4.0,4.0
0.0,0.0,4142.564102564104,4154.871794871797,4100.000000000002,4136.410256410258,4169.23076923077,4189.23076923077,4151.794871794873,4230.256410256412,4262.564102564104,4184.102564102565,4161.0256410256425,4189.23076923077,4174.3589743589755,4163.589743589745,685.0,2047.0,2048.0,0.0,0.0,0.0,0.0,4.0,0.0,0.0,0.0,0.0,0.0,0.0,0.0,4.0,3.0,0.0,0.0,4.0,4.0
1.0,0.0,4147.179487179489,4159.487179487181,4222.564102564104,4139.487179487181,4213.846153846155,4189.23076923077,4197.94871794872,4232.8205128205145,4263.589743589745,4184.102564102565,4157.94871794872,4189.743589743592,4168.71794871795,4158.97435897436,828.0,2047.0,2048.0,0.0,0.0,0.0,0.0,4.0,4.0,0.0,0.0,0.0,0.0,0.0,0.0,4.0,3.0,0.0,0.0,4.0,4.0
2.0,0.0,4147.692307692309,4156.923076923078,4232.307692307694,4140.000000000002,4210.256410256412,4186.153846153848,4182.564102564104,4214.871794871797,4256.410256410258,4185.128205128207,4148.71794871795,4188.20512820513,4157.94871794872,4158.46153846154,805.0,2047.0,2048.0,0.0,0.0,4.0,0.0,4.0,4.0,0.0,0.0,0.0,0.0,0.0,0.0,4.0,3.0,0.0,0.0,4.0,4.0
3.0,0.0,4146.153846153848,4157.94871794872,4164.615384615386,4137.94871794872,4178.97435897436,4187.692307692309,4155.384615384617,4208.71794871795,4248.20512820513,4185.128205128207,4146.153846153848,4183.589743589745,4160.000000000002,4162.051282051283,795.0,2047.0,2048.0,0.0,0.0,4.0,4.0,4.0,4.0,0.0,0.0,0.0,0.0,0.0,0.0,4.0,3.0,0.0,0.0,4.0,4.0
4.0,0.0,4145.128205128207,4154.3589743589755,4133.333333333335,4137.435897435899,4167.692307692309,4185.128205128207,4150.769230769232,4207.692307692309,4249.23076923077,4185.128205128207,4147.179487179489,4186.666666666668,4170.256410256412,4161.0256410256425,0.0,2047.0,2048.0,0.0,0.0,4.0,4.0,4.0,4.0,0.0,0.0,0.0,0.0,0.0,0.0,4.0,3.0,0.0,0.0,4.0,4.0
5.0,0.0,4138.97435897436,4149.23076923077,4120.000000000002,4132.8205128205145,4169.743589743592,4180.000000000002,4142.051282051283,4206.153846153848,4255.897435897437,4185.128205128207,4150.256410256412,4182.051282051283,4167.692307692309,4157.435897435899,785.0,2047.0,2048.0,0.0,0.0,4.0,4.0,4.0,4.0,0.0,4.0,0.0,0.0,0.0,0.0,4.0,3.0,0.0,0.0,4.0,4.0
6.0,0.0,4141.538461538463,4154.3589743589755,4106.153846153848,4128.71794871795,4169.743589743592,4184.615384615386,4129.23076923077,4210.769230769232,4254.3589743589755,4184.102564102565,4152.8205128205145,4187.692307692309,4157.435897435899,4157.94871794872,802.0,2047.0,2048.0,0.0,0.0,4.0,4.0,4.0,4.0,0.0,4.0,4.0,0.0,0.0,0.0,4.0,3.0,0.0,0.0,4.0,4.0
7.0,0.0,4141.538461538463,4154.871794871797,4136.410256410258,4130.256410256412,4181.0256410256425,4189.743589743592,4147.179487179489,4215.384615384617,4246.666666666668,4183.589743589745,4147.692307692309,4190.769230769232,4152.307692307694,4152.8205128205145,811.0,2047.0,2048.0,0.0,0.0,4.0,4.0,4.0,4.0,0.0,4.0,4.0,4.0,0.0,0.0,4.0,3.0,0.0,0.0,4.0,4.0
8.0,0.0,4130.769230769232,4146.666666666668,4198.46153846154,4129.743589743592,4207.692307692309,4184.615384615386,4182.564102564104,4214.3589743589755,4246.666666666668,4185.128205128207,4137.94871794872,4181.538461538463,4150.769230769232,4141.538461538463,610.0,2047.0,2048.0,0.0,0.0,4.0,4.0,4.0,4.0,0.0,4.0,4.0,4.0,4.0,0.0,4.0,3.0,0.0,0.0,4.0,4.0
9.0,0.0,4133.846153846155,4153.333333333335,4215.897435897437,4135.384615384617,4209.23076923077,4184.615384615386,4184.615384615386,4217.94871794872,4252.307692307694,4185.128205128207,4142.051282051283,4185.128205128207,4153.846153846155,4145.641025641027,0.0,2047.0,2048.0,0.0,0.0,4.0,4.0,4.0,4.0,0.0,4.0,4.0,4.0,4.0,0.0,4.0,3.0,0.0,0.0,4.0,4.0
10.0,0.0,4145.641025641027,4170.256410256412,4138.97435897436,4143.589743589745,4167.692307692309,4191.282051282053,4149.743589743592,4218.97435897436,4254.3589743589755,4182.564102564104,4149.743589743592,4184.615384615386,4154.871794871797,4153.333333333335,860.0,2047.0,2048.0,0.0,0.0,4.0,4.0,4.0,4.0,0.0,4.0,4.0,4.0,4.0,0.0,4.0,3.0,4.0,0.0,4.0,4.0
11.0,0.0,4151.282051282053,4171.794871794873,4073.333333333335,4145.128205128207,4148.20512820513,4191.282051282053,4130.769230769232,4215.384615384617,4257.94871794872,4183.076923076925,4151.282051282053,4187.179487179489,4154.3589743589755,4153.333333333335,824.0,2047.0,2048.0,0.0,0.0,4.0,4.0,4.0,4.0,0.0,4.0,4.0,4.0,4.0,0.0,4.0,3.0,4.0,4.0,4.0,4.0
12.0,0.0,4148.20512820513,4166.153846153848,4123.076923076925,4144.102564102565,4177.435897435899,4192.8205128205145,4156.923076923078,4217.435897435899,4266.666666666668,4185.128205128207,4151.794871794873,4189.23076923077,4157.94871794872,4151.794871794873,854.0,2047.0,2048.0,0.0,0.0,4.0,4.0,4.0,4.0,0.0,4.0,4.0,4.0,4.0,0.0,4.0,3.0,4.0,4.0,4.0,4.0
13.0,0.0,4138.46153846154,4164.102564102565,4207.179487179489,4140.512820512822,4208.20512820513,4197.435897435899,4187.692307692309,4217.94871794872,4261.538461538463,4185.641025641027,4147.179487179489,4182.564102564104,4154.3589743589755,4145.128205128207,311.0,2047.0,2048.0,0.0,0.0,4.0,4.0,4.0,4.0,0.0,4.0,4.0,4.0,4.0,0.0,4.0,3.0,4.0,4.0,4.0,4.0
14.0,0.0,4135.897435897437,4165.641025641027,4206.153846153848,4135.384615384617,4202.051282051283,4196.923076923078,4180.512820512822,4214.871794871797,4247.692307692309,4185.641025641027,4137.435897435899,4187.179487179489,4139.487179487181,4139.487179487181,860.0,2047.0,2048.0,0.0,0.0,4.0,4.0,4.0,4.0,0.0,4.0,4.0,4.0,4.0,0.0,4.0,3.0,4.0,4.0,4.0,4.0
15.0,0.0,4140.512820512822,4164.102564102565,4130.769230769232,4135.897435897437,4169.23076923077,4197.94871794872,4157.435897435899,4215.384615384617,4250.256410256412,4185.128205128207,4132.8205128205145,4181.538461538463,4135.384615384617,4138.97435897436,824.0,2047.0,2048.0,0.0,0.0,4.0,4.0,4.0,4.0,0.0,4.0,4.0,4.0,4.0,0.0,4.0,3.0,4.0,4.0,4.0,4.0
16.0,0.0,4142.564102564104,4157.435897435899,4102.564102564104,4140.512820512822,4163.076923076925,4197.435897435899,4155.897435897437,4222.051282051283,4264.102564102565,4184.102564102565,4141.538461538463,4182.564102564104,4146.666666666668,4142.051282051283,0.0,2047.0,2048.0,0.0,0.0,4.0,4.0,4.0,4.0,0.0,4.0,4.0,4.0,4.0,0.0,4.0,3.0,4.0,4.0,4.0,4.0
17.0,0.0,4148.20512820513,4159.487179487181,4150.256410256412,4144.615384615386,4184.102564102565,4187.692307692309,4162.051282051283,4218.97435897436,4264.102564102565,4184.615384615386,4153.846153846155,4191.282051282053,4156.410256410258,4150.769230769232,0.0,2047.0,2048.0,0.0,0.0,4.0,4.0,4.0,4.0,0.0,4.0,4.0,4.0,4.0,0.0,4.0,3.0,4.0,4.0,4.0,4.0
18.0,0.0,4162.051282051283,4179.487179487181,4172.307692307694,4153.333333333335,4185.128205128207,4183.076923076925,4155.384615384617,4206.153846153848,4257.435897435899,4185.128205128207,4154.3589743589755,4188.20512820513,4160.512820512822,4163.589743589745,0.0,2047.0,2048.0,0.0,0.0,4.0,4.0,4.0,4.0,0.0,4.0,4.0,4.0,4.0,0.0,4.0,3.0,4.0,4.0,4.0,4.0
19.0,0.0,4167.692307692309,4191.282051282053,4151.282051282053,4157.435897435899,4175.384615384617,4188.20512820513,4148.20512820513,4207.692307692309,4263.589743589745,4185.128205128207,4153.846153846155,4193.333333333335,4164.615384615386,4170.769230769232,0.0,2047.0,2048.0,0.0,0.0,4.0,4.0,4.0,4.0,0.0,4.0,4.0,4.0,4.0,0.0,4.0,3.0,4.0,4.0,4.0,4.0
20.0,0.0,4160.000000000002,4182.564102564104,4167.692307692309,4152.307692307694,4188.71794871795,4189.743589743592,4160.512820512822,4216.923076923078,4268.20512820513,4185.641025641027,4165.128205128207,4190.769230769232,4171.282051282053,4167.692307692309,0.0,2047.0,2048.0,0.0,0.0,4.0,4.0,4.0,4.0,0.0,4.0,4.0,4.0,4.0,0.0,4.0,3.0,4.0,4.0,4.0,4.0
21.0,0.0,4161.0256410256425,4175.897435897437,4225.128205128207,4155.897435897437,4209.23076923077,4198.46153846154,4184.102564102565,4217.94871794872,4264.102564102565,4184.615384615386,4165.128205128207,4187.179487179489,4169.743589743592,4167.692307692309,0.0,2047.0,2048.0,0.0,0.0,4.0,4.0,4.0,4.0,0.0,4.0,4.0,4.0,4.0,0.0,4.0,3.0,4.0,4.0,4.0,4.0
22.0,0.0,4164.102564102565,4172.8205128205145,4190.769230769232,4158.97435897436,4184.615384615386,4203.076923076925,4171.794871794873,4220.512820512822,4271.794871794873,4183.589743589745,4158.46153846154,4194.3589743589755,4168.71794871795,4174.3589743589755,0.0,2047.0,2048.0,0.0,0.0,4.0,4.0,4.0,4.0,0.0,4.0,4.0,4.0,4.0,0.0,4.0,3.0,4.0,4.0,4.0,4.0
23.0,0.0,4163.076923076925,4167.179487179489,4070.7692307692323,4154.871794871797,4141.0256410256425,4187.692307692309,4123.589743589745,4224.102564102565,4279.487179487181,4184.615384615386,4174.871794871797,4192.307692307694,4183.076923076925,4177.435897435899,0.0,2047.0,2048.0,0.0,0.0,4.0,4.0,4.0,4.0,0.0,4.0,4.0,4.0,4.0,0.0,4.0,3.0,4.0,4.0,4.0,4.0
24.0,0.0,4163.076923076925,4166.666666666668,4083.589743589745,4154.3589743589755,4161.0256410256425,4183.589743589745,4123.589743589745,4217.435897435899,4268.20512820513,4184.615384615386,4181.0256410256425,4191.282051282053,4188.20512820513,4173.333333333335,0.0,2047.0,2048.0,0.0,0.0,4.0,4.0,4.0,4.0,0.0,4.0,4.0,4.0,4.0,0.0,4.0,3.0,4.0,4.0,4.0,4.0
25.0,0.0,4154.3589743589755,4167.692307692309,4225.128205128207,4152.307692307694,4217.435897435899,4200.000000000002,4187.692307692309,4212.307692307694,4258.97435897436,4184.102564102565,4157.94871794872,4185.128205128207,4170.769230769232,4162.564102564104,0.0,2047.0,2048.0,0.0,0.0,4.0,4.0,4.0,4.0,0.0,4.0,4.0,4.0,4.0,0.0,4.0,3.0,4.0,4.0,4.0,4.0
26.0,0.0,4153.846153846155,4169.23076923077,4275.897435897437,4153.333333333335,4224.615384615386,4207.179487179489,4217.94871794872,4223.076923076925,4270.769230769232,4185.128205128207,4156.410256410258,4186.666666666668,4170.769230769232,4165.128205128207,0.0,2047.0,2048.0,0.0,0.0,4.0,4.0,4.0,4.0,0.0,4.0,4.0,4.0,4.0,0.0,4.0,3.0,4.0,4.0,4.0,4.0
27.0,0.0,4164.102564102565,4171.282051282053,4173.846153846155,4160.000000000002,4175.897435897437,4202.564102564104,4172.8205128205145,4235.384615384617,4283.076923076925,4185.641025641027,4187.179487179489,4197.435897435899,4195.897435897437,4181.538461538463,0.0,2047.0,2048.0,0.0,0.0,4.0,4.0,4.0,4.0,0.0,4.0,4.0,4.0,4.0,0.0,4.0,3.0,4.0,4.0,4.0,4.0
28.0,0.0,4164.102564102565,4171.282051282053,4074.8717948717963,4156.410256410258,4143.589743589745,4201.538461538463,4132.307692307694,4232.8205128205145,4281.538461538463,4183.589743589745,4187.179487179489,4187.692307692309,4195.897435897437,4182.051282051283,0.0,2047.0,2048.0,0.0,0.0,4.0,4.0,4.0,4.0,0.0,4.0,4.0,4.0,4.0,0.0,4.0,3.0,4.0,4.0,4.0,4.0
29.0,0.0,4157.94871794872,4163.589743589745,4114.3589743589755,4143.076923076925,4172.307692307694,4204.615384615386,4155.897435897437,4226.153846153848,4274.871794871797,4183.589743589745,4162.564102564104,4187.179487179489,4173.333333333335,4170.256410256412,0.0,2047.0,2048.0,0.0,0.0,4.0,4.0,4.0,4.0,0.0,4.0,4.0,4.0,4.0,0.0,4.0,3.0,4.0,4.0,4.0,4.0
30.0,0.0,4150.769230769232,4154.3589743589755,4205.641025641027,4137.435897435899,4206.153846153848,4204.615384615386,4191.794871794873,4228.71794871795,4276.410256410258,4185.641025641027,4164.102564102565,4192.307692307694,4168.71794871795,4165.641025641027,0.0,2047.0,2048.0,0.0,0.0,4.0,4.0,4.0,4.0,0.0,4.0,4.0,4.0,4.0,0.0,4.0,3.0,4.0,4.0,4.0,4.0
31.0,0.0,4150.256410256412,4161.0256410256425,4221.0256410256425,4138.46153846154,4201.538461538463,4204.102564102565,4185.641025641027,4226.153846153848,4278.97435897436,4185.641025641027,4169.743589743592,4190.256410256412,4172.307692307694,4163.589743589745,0.0,2047.0,2048.0,0.0,0.0,4.0,4.0,4.0,4.0,0.0,4.0,4.0,4.0,4.0,0.0,4.0,3.0,4.0,4.0,4.0,4.0
32.0,0.0,4162.051282051283,4172.307692307694,4178.97435897436,4146.153846153848,4184.615384615386,4200.000000000002,4160.512820512822,4212.8205128205145,4269.23076923077,4184.102564102565,4158.46153846154,4192.8205128205145,4167.692307692309,4162.564102564104,0.0,2047.0,2048.0,0.0,0.0,4.0,4.0,4.0,4.0,0.0,4.0,4.0,4.0,4.0,0.0,4.0,3.0,4.0,4.0,4.0,4.0
33.0,0.0,4168.20512820513,4170.256410256412,4151.282051282053,4152.307692307694,4176.410256410258,4198.46153846154,4155.384615384617,4211.282051282053,4261.0256410256425,4184.615384615386,4154.871794871797,4187.692307692309,4169.23076923077,4164.102564102565,0.0,2047.0,2048.0,0.0,0.0,4.0,4.0,4.0,4.0,0.0,4.0,4.0,4.0,4.0,0.0,4.0,3.0,4.0,4.0,4.0,4.0
34.0,0.0,4167.179487179489,4166.153846153848,4151.282051282053,4148.20512820513,4179.487179487181,4209.23076923077,4161.538461538463,4217.94871794872,4268.71794871795,4186.153846153848,4158.97435897436,4187.179487179489,4168.71794871795,4163.076923076925,0.0,2047.0,2048.0,0.0,0.0,4.0,4.0,4.0,4.0,0.0,4.0,4.0,4.0,4.0,0.0,4.0,3.0,4.0,4.0,4.0,4.0
35.0,0.0,4168.20512820513,4169.23076923077,4132.307692307694,4146.666666666668,4174.3589743589755,4215.897435897437,4150.769230769232,4215.897435897437,4275.897435897437,4186.153846153848,4153.846153846155,4183.076923076925,4157.435897435899,4162.051282051283,0.0,2047.0,2048.0,0.0,0.0,4.0,4.0,4.0,4.0,0.0,4.0,4.0,4.0,4.0,0.0,4.0,3.0,4.0,4.0,4.0,4.0
36.0,0.0,4167.179487179489,4171.282051282053,4125.128205128207,4154.871794871797,4173.333333333335,4211.282051282053,4143.076923076925,4218.97435897436,4274.3589743589755,4185.128205128207,4155.384615384617,4181.0256410256425,4154.871794871797,4164.615384615386,0.0,2047.0,2048.0,0.0,0.0,4.0,4.0,4.0,4.0,0.0,4.0,4.0,4.0,4.0,0.0,4.0,3.0,4.0,4.0,4.0,4.0
37.0,0.0,4164.615384615386,4172.307692307694,4184.102564102565,4157.435897435899,4198.46153846154,4214.871794871797,4175.897435897437,4229.23076923077,4274.3589743589755,4184.615384615386,4152.8205128205145,4188.20512820513,4153.333333333335,4155.384615384617,0.0,2047.0,2048.0,0.0,0.0,4.0,4.0,4.0,4.0,0.0,4.0,4.0,4.0,4.0,0.0,4.0,3.0,4.0,4.0,4.0,4.0
38.0,0.0,4158.46153846154,4168.71794871795,4233.846153846155,4148.20512820513,4213.846153846155,4215.897435897437,4205.641025641027,4224.102564102565,4273.333333333335,4183.589743589745,4137.94871794872,4179.487179487181,4139.487179487181,4142.051282051283,0.0,2047.0,2048.0,0.0,0.0,4.0,4.0,4.0,4.0,0.0,4.0,4.0,4.0,4.0,0.0,4.0,3.0,4.0,4.0,4.0,4.0
39.0,0.0,4153.846153846155,4166.666666666668,4191.794871794873,4143.589743589745,4190.256410256412,4205.641025641027,4177.94871794872,4211.282051282053,4271.794871794873,4184.102564102565,4142.051282051283,4180.512820512822,4141.0256410256425,4148.20512820513,0.0,2047.0,2048.0,0.0,0.0,4.0,4.0,4.0,4.0,0.0,4.0,4.0,4.0,4.0,0.0,4.0,3.0,4.0,4.0,4.0,4.0
40.0,0.0,4162.051282051283,4176.923076923078,4102.051282051283,4148.71794871795,4153.846153846155,4204.615384615386,4139.487179487181,4224.102564102565,4280.512820512822,4185.641025641027,4158.46153846154,4187.179487179489,4156.923076923078,4162.051282051283,0.0,2047.0,2048.0,0.0,0.0,4.0,4.0,4.0,4.0,0.0,4.0,4.0,4.0,4.0,0.0,4.0,3.0,4.0,4.0,4.0,4.0
41.0,0.0,4172.307692307694,4182.051282051283,4096.923076923078,4156.923076923078,4160.000000000002,4222.051282051283,4155.897435897437,4237.94871794872,4286.153846153848,4185.128205128207,4157.94871794872,4184.615384615386,4157.435897435899,4163.076923076925,0.0,2047.0,2048.0,0.0,0.0,4.0,4.0,4.0,4.0,0.0,4.0,4.0,4.0,4.0,0.0,4.0,3.0,4.0,4.0,4.0,4.0
42.0,0.0,4170.769230769232,4182.051282051283,4193.846153846155,4157.435897435899,4201.0256410256425,4229.743589743592,4195.384615384617,4225.641025641027,4281.0256410256425,4184.615384615386,4151.794871794873,4189.23076923077,4150.256410256412,4158.46153846154,0.0,2047.0,2048.0,0.0,0.0,4.0,4.0,4.0,4.0,0.0,4.0,4.0,4.0,4.0,0.0,4.0,3.0,4.0,4.0,4.0,4.0
43.0,0.0,4158.97435897436,4180.000000000002,4241.538461538463,4149.743589743592,4211.282051282053,4221.0256410256425,4200.000000000002,4222.051282051283,4277.94871794872,4185.641025641027,4150.769230769232,4184.102564102565,4151.794871794873,4151.794871794873,0.0,2047.0,2048.0,0.0,0.0,4.0,4.0,4.0,4.0,0.0,4.0,4.0,4.0,4.0,0.0,4.0,3.0,4.0,4.0,4.0,4.0
44.0,0.0,4156.923076923078,4175.897435897437,4187.692307692309,4151.282051282053,4187.179487179489,4214.3589743589755,4174.871794871797,4229.743589743592,4280.000000000002,4185.641025641027,4152.307692307694,4185.128205128207,4150.256410256412,4151.282051282053,0.0,2047.0,2048.0,0.0,0.0,4.0,4.0,4.0,4.0,0.0,4.0,4.0,4.0,4.0,0.0,4.0,3.0,4.0,4.0,4.0,4.0
45.0,0.0,4162.051282051283,4174.3589743589755,4126.666666666668,4154.871794871797,4167.179487179489,4216.410256410258,4160.512820512822,4227.179487179489,4280.000000000002,4184.615384615386,4154.3589743589755,4189.23076923077,4145.128205128207,4160.000000000002,0.0,2047.0,2048.0,0.0,0.0,4.0,4.0,4.0,4.0,0.0,4.0,4.0,4.0,4.0,0.0,4.0,3.0,4.0,4.0,4.0,4.0
46.0,0.0,4162.051282051283,4177.435897435899,4136.410256410258,4153.846153846155,4175.384615384617,4217.94871794872,4175.897435897437,4225.128205128207,4280.512820512822,4185.128205128207,4152.307692307694,4180.000000000002,4146.666666666668,4160.512820512822,0.0,2047.0,2048.0,0.0,0.0,4.0,4.0,4.0,4.0,0.0,4.0,4.0,4.0,4.0,0.0,4.0,3.0,4.0,4.0,4.0,4.0
47.0,0.0,4164.102564102565,4184.615384615386,4189.743589743592,4162.051282051283,4194.3589743589755,4216.410256410258,4191.282051282053,4228.71794871795,4281.0256410256425,4184.615384615386,4150.256410256412,4183.076923076925,4151.794871794873,4157.94871794872,0.0,2047.0,2048.0,0.0,0.0,4.0,4.0,4.0,4.0,0.0,4.0,4.0,4.0,4.0,0.0,4.0,3.0,4.0,4.0,4.0,4.0
48.0,0.0,4164.102564102565,4189.23076923077,4202.051282051283,4169.23076923077,4193.846153846155,4217.94871794872,4186.666666666668,4224.102564102565,4278.97435897436,4184.102564102565,4153.333333333335,4183.589743589745,4155.897435897437,4160.000000000002,0.0,2047.0,2048.0,0.0,0.0,4.0,4.0,4.0,4.0,0.0,4.0,4.0,4.0,4.0,0.0,4.0,3.0,4.0,4.0,4.0,4.0
49.0,0.0,4158.97435897436,4180.000000000002,4175.897435897437,4162.051282051283,4185.128205128207,4222.051282051283,4175.897435897437,4216.923076923078,4275.897435897437,4184.615384615386,4148.71794871795,4183.076923076925,4150.769230769232,4155.897435897437,0.0,2047.0,2048.0,0.0,0.0,4.0,4.0,4.0,4.0,0.0,4.0,4.0,4.0,4.0,0.0,4.0,3.0,4.0,4.0,4.0,4.0
50.0,0.0,4151.282051282053,4167.179487179489,4160.512820512822,4152.8205128205145,4182.564102564104,4219.487179487181,4172.307692307694,4217.435897435899,4274.3589743589755,4184.615384615386,4137.94871794872,4183.589743589745,4140.512820512822,4146.666666666668,0.0,2047.0,2048.0,0.0,0.0,4.0,4.0,4.0,4.0,0.0,4.0,4.0,4.0,4.0,0.0,4.0,3.0,4.0,4.0,4.0,4.0
51.0,0.0,4145.641025641027,4167.692307692309,4164.615384615386,4154.3589743589755,4184.102564102565,4218.46153846154,4179.487179487181,4222.564102564104,4276.410256410258,4184.102564102565,4136.923076923078,4178.46153846154,4141.0256410256425,4148.20512820513,0.0,2047.0,2048.0,0.0,0.0,4.0,4.0,4.0,4.0,0.0,4.0,4.0,4.0,4.0,0.0,4.0,3.0,4.0,4.0,4.0,4.0
52.0,0.0,4149.743589743592,4170.769230769232,4166.666666666668,4157.435897435899,4186.666666666668,4220.000000000002,4185.128205128207,4230.256410256412,4280.000000000002,4184.615384615386,4145.128205128207,4183.076923076925,4151.282051282053,4158.46153846154,0.0,2047.0,2048.0,0.0,0.0,4.0,4.0,4.0,4.0,0.0,4.0,4.0,4.0,4.0,0.0,4.0,3.0,4.0,4.0,4.0,4.0
53.0,0.0,4156.410256410258,4163.589743589745,4156.410256410258,4153.846153846155,4183.076923076925,4218.97435897436,4178.97435897436,4232.307692307694,4280.512820512822,4185.641025641027,4151.282051282053,4181.0256410256425,4157.94871794872,4161.538461538463,0.0,2047.0,2048.0,0.0,0.0,4.0,4.0,4.0,4.0,0.0,4.0,4.0,4.0,4.0,0.0,4.0,3.0,4.0,4.0,4.0,4.0
54.0,0.0,4160.512820512822,4165.128205128207,4174.3589743589755,4153.846153846155,4184.102564102565,4214.871794871797,4169.743589743592,4228.71794871795,4276.923076923078,4184.615384615386,4157.94871794872,4184.615384615386,4161.0256410256425,4166.666666666668,0.0,2047.0,2048.0,0.0,0.0,4.0,4.0,4.0,4.0,0.0,4.0,4.0,4.0,4.0,0.0,4.0,3.0,4.0,4.0,4.0,4.0
55.0,0.0,4169.743589743592,4178.46153846154,4197.435897435899,4164.102564102565,4186.666666666668,4216.923076923078,4173.846153846155,4230.769230769232,4279.487179487181,4184.102564102565,4168.71794871795,4194.3589743589755,4170.256410256412,4179.487179487181,0.0,2047.0,2048.0,0.0,0.0,4.0,4.0,4.0,4.0,0.0,4.0,4.0,4.0,4.0,0.0,4.0,3.0,4.0,4.0,4.0,4.0
56.0,0.0,4177.94871794872,4187.179487179489,4183.076923076925,4173.846153846155,4181.538461538463,4221.538461538463,4182.564102564104,4235.384615384617,4286.666666666668,4184.102564102565,4172.8205128205145,4192.307692307694,4175.384615384617,4178.97435897436,0.0,2047.0,2048.0,0.0,0.0,4.0,4.0,4.0,4.0,0.0,4.0,4.0,4.0,4.0,0.0,4.0,3.0,4.0,4.0,4.0,4.0
57.0,0.0,4174.3589743589755,4187.179487179489,4190.256410256412,4173.333333333335,4187.179487179489,4221.0256410256425,4186.666666666668,4234.871794871797,4285.641025641027,4184.615384615386,4167.179487179489,4196.410256410258,4168.20512820513,4170.769230769232,0.0,2047.0,2048.0,0.0,0.0,4.0,4.0,4.0,4.0,0.0,4.0,4.0,4.0,4.0,0.0,4.0,3.0,4.0,4.0,4.0,4.0
58.0,0.0,4168.71794871795,4178.46153846154,4209.23076923077,4167.179487179489,4190.256410256412,4217.435897435899,4183.589743589745,4229.743589743592,4276.923076923078,4184.102564102565,4166.153846153848,4191.282051282053,4167.179487179489,4172.8205128205145,0.0,2047.0,2048.0,0.0,0.0,4.0,4.0,4.0,4.0,0.0,4.0,4.0,4.0,4.0,0.0,4.0,3.0,4.0,4.0,4.0,4.0
59.0,0.0,4177.435897435899,4173.846153846155,4168.71794871795,4164.615384615386,4176.410256410258,4214.3589743589755,4168.20512820513,4228.20512820513,4277.435897435899,4184.615384615386,4170.769230769232,4188.20512820513,4177.435897435899,4179.487179487181,0.0,2047.0,2048.0,0.0,0.0,4.0,4.0,4.0,4.0,0.0,4.0,4.0,4.0,4.0,0.0,4.0,3.0,4.0,4.0,4.0,4.0
60.0,0.0,4186.666666666668,4176.923076923078,4131.794871794873,4163.589743589745,4169.743589743592,4217.435897435899,4162.051282051283,4234.3589743589755,4283.076923076925,4185.128205128207,4169.23076923077,4192.8205128205145,4178.97435897436,4182.051282051283,0.0,2047.0,2048.0,0.0,0.0,4.0,4.0,4.0,4.0,0.0,4.0,4.0,4.0,4.0,0.0,4.0,3.0,4.0,4.0,4.0,4.0
61.0,0.0,4195.897435897437,4185.128205128207,4184.615384615386,4165.641025641027,4188.20512820513,4219.487179487181,4182.051282051283,4234.871794871797,4279.487179487181,4185.128205128207,4168.71794871795,4186.666666666668,4174.871794871797,4191.282051282053,0.0,2047.0,2048.0,0.0,0.0,4.0,4.0,4.0,4.0,0.0,4.0,4.0,4.0,4.0,0.0,4.0,3.0,4.0,4.0,4.0,4.0
62.0,0.0,4237.94871794872,4205.641025641027,4266.153846153848,4181.538461538463,4208.71794871795,4213.846153846155,4193.846153846155,4228.20512820513,4282.564102564104,4185.128205128207,4191.282051282053,4198.46153846154,4203.076923076925,4229.743589743592,0.0,2047.0,2048.0,0.0,0.0,4.0,4.0,4.0,4.0,0.0,4.0,4.0,4.0,4.0,0.0,4.0,3.0,4.0,4.0,4.0,4.0
63.0,0.0,4277.435897435899,4226.153846153848,4249.743589743592,4200.000000000002,4192.307692307694,4211.794871794873,4176.923076923078,4230.256410256412,4292.8205128205145,4184.102564102565,4210.769230769232,4205.641025641027,4229.23076923077,4257.94871794872,0.0,2047.0,2048.0,0.0,0.0,4.0,4.0,4.0,4.0,0.0,4.0,4.0,4.0,4.0,0.0,4.0,3.0,4.0,4.0,4.0,4.0
64.0,0.0,4288.71794871795,4233.333333333335,4178.97435897436,4200.000000000002,4165.128205128207,4214.3589743589755,4155.384615384617,4234.871794871797,4290.256410256412,4184.102564102565,4198.97435897436,4197.94871794872,4219.487179487181,4252.307692307694,685.0,2047.0,2048.0,0.0,0.0,4.0,4.0,4.0,4.0,0.0,4.0,4.0,4.0,4.0,0.0,4.0,3.0,4.0,4.0,4.0,4.0
65.0,0.0,4309.743589743592,4240.512820512822,4188.71794871795,4200.512820512822,4174.871794871797,4206.153846153848,4152.8205128205145,4224.615384615386,4278.97435897436,4184.615384615386,4188.71794871795,4200.512820512822,4220.000000000002,4262.564102564104,828.0,2047.0,2048.0,0.0,0.0,4.0,4.0,4.0,4.0,0.0,4.0,4.0,4.0,4.0,0.0,4.0,3.0,4.0,4.0,4.0,4.0
66.0,0.0,4327.692307692309,4252.307692307694,4261.0256410256425,4210.769230769232,4201.538461538463,4198.46153846154,4167.179487179489,4216.923076923078,4276.923076923078,4184.102564102565,4201.538461538463,4199.487179487181,4236.923076923078,4284.102564102565,805.0,2047.0,2048.0,0.0,0.0,4.0,4.0,4.0,4.0,0.0,4.0,4.0,4.0,4.0,0.0,4.0,3.0,4.0,4.0,4.0,4.0
67.0,0.0,4320.512820512822,4247.692307692309,4289.23076923077,4206.666666666668,4208.71794871795,4209.23076923077,4184.615384615386,4228.71794871795,4281.0256410256425,4184.102564102565,4211.794871794873,4205.128205128207,4237.435897435899,4280.000000000002,795.0,2047.0,2048.0,0.0,0.0,4.0,4.0,4.0,4.0,0.0,4.0,4.0,4.0,4.0,0.0,4.0,3.0,4.0,4.0,4.0,4.0
68.0,0.0,4315.384615384617,4232.307692307694,4248.20512820513,4197.94871794872,4187.692307692309,4217.94871794872,4177.435897435899,4235.897435897437,4280.000000000002,4184.102564102565,4209.743589743592,4207.179487179489,4229.743589743592,4268.20512820513,0.0,2047.0,2048.0,0.0,0.0,4.0,4.0,4.0,4.0,0.0,4.0,4.0,4.0,4.0,0.0,4.0,3.0,4.0,4.0,4.0,4.0
69.0,0.0,4315.897435897437,4230.256410256412,4193.846153846155,4199.487179487181,4168.20512820513,4212.307692307694,4144.102564102565,4225.641025641027,4276.923076923078,4184.615384615386,4199.487179487181,4198.46153846154,4225.128205128207,4268.20512820513,785.0,2047.0,2048.0,0.0,0.0,4.0,4.0,4.0,4.0,0.0,4.0,4.0,4.0,4.0,0.0,4.0,3.0,4.0,4.0,4.0,4.0
70.0,0.0,4300.000000000002,4233.846153846155,4170.256410256412,4194.3589743589755,4167.692307692309,4212.307692307694,4134.871794871797,4218.97435897436,4276.923076923078,4185.641025641027,4189.23076923077,4197.435897435899,4216.923076923078,4259.487179487181,802.0,2047.0,2048.0,0.0,0.0,4.0,4.0,4.0,4.0,0.0,4.0,4.0,4.0,4.0,0.0,4.0,3.0,4.0,4.0,4.0,4.0
71.0,0.0,4281.538461538463,4229.23076923077,4201.0256410256425,4184.102564102565,4182.564102564104,4218.46153846154,4167.179487179489,4222.051282051283,4277.435897435899,4185.641025641027,4188.71794871795,4194.871794871797,4214.871794871797,4243.076923076925,843.0,2047.0,2048.0,0.0,0.0,4.0,4.0,4.0,4.0,0.0,4.0,4.0,4.0,4.0,0.0,4.0,3.0,4.0,4.0,4.0,4.0
72.0,0.0,4276.923076923078,4228.71794871795,4276.923076923078,4183.076923076925,4212.307692307694,4216.923076923078,4193.333333333335,4216.410256410258,4269.23076923077,4184.102564102565,4186.666666666668,4198.97435897436,4211.282051282053,4236.923076923078,610.0,2047.0,2048.0,0.0,0.0,4.0,4.0,4.0,4.0,0.0,4.0,4.0,4.0,4.0,0.0,4.0,3.0,4.0,4.0,4.0,4.0
73.0,0.0,4266.153846153848,4232.8205128205145,4290.769230769232,4186.153846153848,4213.846153846155,4213.333333333335,4181.538461538463,4207.179487179489,4255.897435897437,4184.615384615386,4176.410256410258,4194.871794871797,4195.384615384617,4230.769230769232,0.0,2047.0,2048.0,0.0,0.0,4.0,4.0,4.0,4.0,0.0,4.0,4.0,4.0,4.0,0.0,4.0,3.0,4.0,4.0,4.0,4.0
74.0,0.0,4251.794871794873,4220.512820512822,4199.487179487181,4180.512820512822,4173.333333333335,4216.410256410258,4160.512820512822,4214.3589743589755,4262.564102564104,4186.153846153848,4178.97435897436,4188.71794871795,4190.769230769232,4226.153846153848,860.0,2047.0,2048.0,0.0,0.0,4.0,4.0,4.0,4.0,0.0,4.0,4.0,4.0,4.0,0.0,4.0,3.0,4.0,4.0,4.0,4.0
75.0,0.0,4243.589743589745,4206.153846153848,4123.076923076925,4174.871794871797,4150.256410256412,4217.435897435899,4145.641025641027,4223.589743589745,4274.871794871797,4185.128205128207,4188.71794871795,4197.94871794872,4195.897435897437,4224.102564102565,823.0,2047.0,2048.0,0.0,0.0,4.0,4.0,4.0,4.0,0.0,4.0,4.0,4.0,4.0,0.0,4.0,3.0,4.0,4.0,4.0,4.0
76.0,0.0,4236.410256410258,4215.384615384617,4162.051282051283,4180.512820512822,4174.3589743589755,4216.410256410258,4147.179487179489,4212.307692307694,4268.71794871795,4184.615384615386,4186.153846153848,4195.897435897437,4193.846153846155,4216.923076923078,854.0,2047.0,2048.0,0.0,0.0,4.0,4.0,4.0,4.0,0.0,4.0,4.0,4.0,4.0,0.0,4.0,3.0,4.0,4.0,4.0,4.0
77.0,0.0,4227.692307692309,4221.538461538463,4264.615384615386,4185.641025641027,4212.8205128205145,4227.179487179489,4187.692307692309,4213.333333333335,4267.179487179489,4184.102564102565,4182.051282051283,4195.897435897437,4186.666666666668,4207.692307692309,331.0,2047.0,2048.0,0.0,0.0,4.0,4.0,4.0,4.0,0.0,4.0,4.0,4.0,4.0,0.0,4.0,4.0,4.0,4.0,4.0,4.0
78.0,0.0,4213.333333333335,4203.589743589745,4274.871794871797,4177.94871794872,4210.256410256412,4235.897435897437,4213.846153846155,4233.333333333335,4279.487179487181,4184.102564102565,4183.589743589745,4196.410256410258,4181.538461538463,4198.46153846154,860.0,2047.0,2048.0,0.0,0.0,4.0,4.0,4.0,4.0,0.0,4.0,4.0,4.0,4.0,0.0,4.0,4.0,4.0,4.0,4.0,4.0
79.0,0.0,4198.97435897436,4195.897435897437,4178.97435897436,4175.384615384617,4171.282051282053,4233.846153846155,4180.000000000002,4239.487179487181,4287.692307692309,4184.615384615386,4189.23076923077,4189.743589743592,4184.615384615386,4196.923076923078,823.0,2047.0,2048.0,0.0,0.0,4.0,4.0,4.0,4.0,0.0,4.0,4.0,4.0,4.0,0.0,4.0,4.0,4.0,4.0,4.0,4.0
80.0,0.0,4198.46153846154,4205.641025641027,4125.641025641027,4187.692307692309,4155.897435897437,4233.846153846155,4144.615384615386,4229.743589743592,4291.794871794873,4184.615384615386,4201.538461538463,4202.051282051283,4193.846153846155,4207.179487179489,854.0,2047.0,2048.0,0.0,0.0,4.0,4.0,4.0,4.0,0.0,4.0,4.0,4.0,4.0,0.0,4.0,4.0,4.0,4.0,4.0,4.0
81.0,0.0,4191.794871794873,4204.615384615386,4156.410256410258,4182.564102564104,4175.897435897437,4235.384615384617,4158.97435897436,4227.179487179489,4294.871794871797,4184.615384615386,4204.102564102565,4204.102564102565,4194.3589743589755,4207.179487179489,331.0,2047.0,2048.0,0.0,0.0,4.0,4.0,4.0,4.0,0.0,4.0,4.0,4.0,4.0,0.0,4.0,4.0,4.0,4.0,4.0,4.0
82.0,0.0,4172.307692307694,4196.410256410258,4203.589743589745,4164.102564102565,4198.46153846154,4232.8205128205145,4188.71794871795,4230.769230769232,4285.641025641027,4184.615384615386,4185.128205128207,4196.410256410258,4173.846153846155,4181.538461538463,860.0,2047.0,2048.0,0.0,0.0,4.0,4.0,4.0,4.0,0.0,4.0,4.0,4.0,4.0,0.0,4.0,4.0,4.0,4.0,4.0,4.0
83.0,0.0,4156.923076923078,4191.282051282053,4215.897435897437,4160.000000000002,4201.0256410256425,4231.794871794873,4192.307692307694,4226.153846153848,4277.435897435899,4185.641025641027,4168.20512820513,4193.846153846155,4157.435897435899,4162.051282051283,823.0,2047.0,2048.0,0.0,0.0,4.0,4.0,4.0,4.0,0.0,4.0,4.0,4.0,4.0,0.0,4.0,4.0,4.0,4.0,4.0,4.0
84.0,0.0,4149.23076923077,4180.512820512822,4200.512820512822,4158.97435897436,4195.897435897437,4237.94871794872,4192.307692307694,4223.589743589745,4283.589743589745,4185.128205128207,4165.128205128207,4186.666666666668,4154.871794871797,4158.46153846154,854.0,2047.0,2048.0,0.0,0.0,4.0,4.0,4.0,4.0,0.0,4.0,4.0,4.0,4.0,0.0,4.0,4.0,4.0,4.0,4.0,4.0
85.0,0.0,4147.179487179489,4174.3589743589755,4171.794871794873,4154.871794871797,4185.128205128207,4239.487179487181,4184.102564102565,4221.538461538463,4283.076923076925,4184.615384615386,4163.589743589745,4190.256410256412,4154.3589743589755,4159.487179487181,331.0,2047.0,2048.0,0.0,0.0,4.0,4.0,4.0,4.0,0.0,4.0,4.0,4.0,4.0,0.0,4.0,4.0,4.0,4.0,4.0,4.0
86.0,0.0,4146.666666666668,4177.94871794872,4112.8205128205145,4158.46153846154,4160.512820512822,4230.769230769232,4150.256410256412,4218.97435897436,4278.97435897436,4185.641025641027,4169.743589743592,4190.256410256412,4161.538461538463,4167.179487179489,860.0,2047.0,2048.0,0.0,0.0,4.0,4.0,4.0,4.0,0.0,4.0,4.0,4.0,4.0,0.0,4.0,4.0,4.0,4.0,4.0,4.0
87.0,0.0,4148.71794871795,4177.94871794872,4104.102564102565,4163.076923076925,4162.564102564104,4227.179487179489,4146.666666666668,4224.102564102565,4283.076923076925,4186.153846153848,4177.435897435899,4193.333333333335,4167.692307692309,4170.769230769232,823.0,2047.0,2048.0,0.0,0.0,4.0,4.0,4.0,4.0,0.0,4.0,4.0,4.0,4.0,0.0,4.0,4.0,4.0,4.0,4.0,4.0
88.0,0.0,4151.794871794873,4171.794871794873,4197.435897435899,4158.97435897436,4202.051282051283,4232.8205128205145,4192.8205128205145,4233.846153846155,4292.307692307694,4185.128205128207,4181.0256410256425,4199.487179487181,4169.23076923077,4165.641025641027,854.0,2047.0,2048.0,0.0,0.0,4.0,4.0,4.0,4.0,0.0,4.0,4.0,4.0,4.0,0.0,4.0,4.0,4.0,4.0,4.0,4.0
89.0,0.0,4140.512820512822,4162.564102564104,4250.769230769232,4154.871794871797,4218.46153846154,4231.794871794873,4210.769230769232,4229.743589743592,4290.256410256412,4184.102564102565,4176.410256410258,4189.743589743592,4168.20512820513,4155.897435897437,331.0,2047.0,2048.0,0.0,0.0,4.0,4.0,4.0,4.0,0.0,4.0,4.0,4.0,4.0,0.0,4.0,4.0,4.0,4.0,4.0,4.0
90.0,0.0,4125.128205128207,4160.512820512822,4177.94871794872,4157.94871794872,4188.71794871795,4234.871794871797,4183.589743589745,4226.666666666668,4287.179487179489,4184.615384615386,4170.769230769232,4190.769230769232,4160.000000000002,4150.769230769232,860.0,2047.0,2048.0,0.0,0.0,4.0,4.0,4.0,4.0,0.0,4.0,4.0,4.0,4.0,0.0,4.0,4.0,4.0,4.0,4.0,4.0
91.0,0.0,4122.051282051283,4166.153846153848,4083.0769230769247,4153.333333333335,4155.384615384617,4246.666666666668,4167.179487179489,4244.102564102565,4296.410256410258,4184.615384615386,4169.743589743592,4189.743589743592,4151.282051282053,4148.20512820513,823.0,2047.0,2048.0,0.0,0.0,4.0,4.0,4.0,4.0,0.0,4.0,4.0,4.0,4.0,0.0,4.0,4.0,4.0,4.0,4.0,4.0
92.0,0.0,4119.487179487181,4169.23076923077,4102.051282051283,4142.051282051283,4169.23076923077,4245.128205128207,4173.333333333335,4243.589743589745,4292.8205128205145,4184.102564102565,4166.153846153848,4185.641025641027,4148.71794871795,4145.128205128207,854.0,2047.0,2048.0,0.0,0.0,4.0,4.0,4.0,4.0,0.0,4.0,4.0,4.0,4.0,0.0,4.0,4.0,4.0,4.0,4.0,4.0
93.0,0.0,4117.94871794872,4166.666666666668,4198.97435897436,4142.564102564104,4211.794871794873,4237.435897435899,4186.666666666668,4216.923076923078,4275.384615384617,4184.615384615386,4162.564102564104,4188.20512820513,4152.8205128205145,4145.128205128207,331.0,2047.0,2048.0,0.0,0.0,4.0,4.0,4.0,4.0,0.0,4.0,4.0,4.0,4.0,0.0,4.0,4.0,4.0,4.0,4.0,4.0
94.0,0.0,4125.128205128207,4168.71794871795,4232.307692307694,4147.692307692309,4216.923076923078,4239.487179487181,4200.000000000002,4211.282051282053,4276.923076923078,4185.128205128207,4165.128205128207,4182.564102564104,4155.384615384617,4144.102564102565,860.0,2047.0,2048.0,0.0,0.0,4.0,4.0,4.0,4.0,0.0,4.0,4.0,4.0,4.0,0.0,4.0,4.0,4.0,4.0,4.0,4.0
95.0,0.0,4129.743589743592,4170.256410256412,4173.333333333335,4148.20512820513,4182.051282051283,4237.435897435899,4185.641025641027,4227.179487179489,4293.333333333335,4185.641025641027,4171.282051282053,4188.71794871795,4158.46153846154,4149.743589743592,823.0,2047.0,2048.0,0.0,0.0,4.0,4.0,4.0,4.0,0.0,4.0,4.0,4.0,4.0,0.0,4.0,4.0,4.0,4.0,4.0,4.0
96.0,0.0,4123.589743589745,4164.102564102565,4080.0000000000014,4146.153846153848,4145.641025641027,4234.871794871797,4150.769230769232,4231.282051282053,4294.3589743589755,4185.641025641027,4174.3589743589755,4190.256410256412,4160.000000000002,4151.794871794873,854.0,2047.0,2048.0,0.0,0.0,4.0,4.0,4.0,4.0,0.0,4.0,4.0,4.0,4.0,0.0,4.0,4.0,4.0,4.0,4.0,4.0
97.0,0.0,4129.23076923077,4172.307692307694,4063.589743589745,4152.307692307694,4150.256410256412,4245.128205128207,4144.615384615386,4228.71794871795,4292.307692307694,4184.615384615386,4179.487179487181,4187.692307692309,4167.692307692309,4154.3589743589755,331.0,2047.0,2048.0,0.0,0.0,4.0,4.0,4.0,4.0,0.0,4.0,4.0,4.0,4.0,0.0,4.0,4.0,4.0,4.0,4.0,4.0
98.0,0.0,4140.512820512822,4181.0256410256425,4171.794871794873,4156.923076923078,4198.97435897436,4254.3589743589755,4190.769230769232,4237.435897435899,4298.97435897436,4184.102564102565,4182.051282051283,4193.333333333335,4171.794871794873,4157.94871794872,860.0,2047.0,2048.0,0.0,0.0,4.0,4.0,4.0,4.0,0.0,4.0,4.0,4.0,4.0,0.0,4.0,4.0,4.0,4.0,4.0,4.0
99.0,0.0,4126.153846153848,4170.256410256412,4270.769230769232,4147.179487179489,4233.846153846155,4249.743589743592,4230.256410256412,4233.333333333335,4288.71794871795,4185.641025641027,4165.641025641027,4184.615384615386,4150.769230769232,4143.076923076925,823.0,2047.0,2048.0,0.0,0.0,4.0,4.0,4.0,4.0,0.0,4.0,4.0,4.0,4.0,0.0,4.0,4.0,4.0,4.0,4.0,4.0
100.0,0.0,4122.051282051283,4171.282051282053,4237.94871794872,4146.153846153848,4209.743589743592,4244.102564102565,4197.435897435899,4211.282051282053,4268.20512820513,4186.666666666668,4154.3589743589755,4185.128205128207,4137.435897435899,4137.435897435899,854.0,2047.0,2048.0,0.0,0.0,4.0,4.0,4.0,4.0,0.0,4.0,4.0,4.0,4.0,0.0,4.0,4.0,4.0,4.0,4.0,4.0
100.0,0.0,4122.051282051283,4171.282051282053,4237.94871794872,4146.153846153848,4209.743589743592,4244.102564102565,4197.435897435899,4211.282051282053,4268.20512820513,4186.666666666668,4154.3589743589755,4185.128205128207,4137.435897435899,4137.435897435899,854.0,2047.0,2048.0,0.0,0.0,4.0,4.0,4.0,4.0,0.0,4.0,4.0,4.0,4.0,0.0,4.0,4.0,4.0,4.0,4.0,4.0
101.0,0.0,4137.94871794872,4186.666666666668,4114.871794871797,4153.846153846155,4152.8205128205145,4244.102564102565,4141.0256410256425,4209.23076923077,4274.3589743589755,4183.589743589745,4167.692307692309,4191.282051282053,4155.384615384617,4157.435897435899,331.0,2047.0,2048.0,0.0,0.0,4.0,4.0,4.0,4.0,0.0,4.0,4.0,4.0,4.0,0.0,4.0,4.0,4.0,4.0,4.0,4.0
102.0,0.0,4143.589743589745,4189.23076923077,4057.9487179487196,4156.410256410258,4143.076923076925,4245.128205128207,4136.923076923078,4229.23076923077,4294.871794871797,4183.076923076925,4181.538461538463,4194.3589743589755,4172.8205128205145,4170.769230769232,860.0,2047.0,2048.0,0.0,0.0,4.0,4.0,4.0,4.0,0.0,4.0,4.0,4.0,4.0,0.0,4.0,4.0,4.0,4.0,4.0,4.0
103.0,0.0,4137.435897435899,4183.589743589745,4146.153846153848,4154.871794871797,4193.333333333335,4251.282051282053,4181.538461538463,4233.333333333335,4290.769230769232,4184.615384615386,4174.871794871797,4196.410256410258,4162.051282051283,4161.0256410256425,823.0,2047.0,2048.0,0.0,0.0,4.0,4.0,4.0,4.0,0.0,4.0,4.0,4.0,4.0,0.0,4.0,4.0,4.0,4.0,4.0,4.0
104.0,0.0,4128.20512820513,4183.589743589745,4246.666666666668,4148.71794871795,4226.666666666668,4263.076923076925,4227.179487179489,4227.692307692309,4277.94871794872,4184.102564102565,4161.0256410256425,4183.076923076925,4143.589743589745,4146.153846153848,854.0,2047.0,2048.0,0.0,0.0,4.0,4.0,4.0,4.0,0.0,4.0,4.0,4.0,4.0,0.0,4.0,4.0,4.0,4.0,4.0,4.0
105.0,0.0,4115.897435897437,4174.871794871797,4220.512820512822,4136.923076923078,4209.23076923077,4265.641025641027,4224.615384615386,4226.666666666668,4278.46153846154,4184.102564102565,4149.743589743592,4181.538461538463,4133.846153846155,4137.435897435899,331.0,2047.0,2048.0,0.0,0.0,4.0,4.0,4.0,4.0,0.0,4.0,4.0,4.0,4.0,0.0,4.0,4.0,4.0,4.0,4.0,4.0
106.0,0.0,4104.102564102565,4163.076923076925,4107.692307692309,4133.846153846155,4166.666666666668,4257.94871794872,4182.051282051283,4231.794871794873,4290.769230769232,4185.128205128207,4148.20512820513,4186.153846153848,4134.871794871797,4135.897435897437,860.0,2047.0,2048.0,0.0,0.0,4.0,4.0,4.0,4.0,0.0,4.0,4.0,4.0,4.0,0.0,4.0,4.0,4.0,4.0,4.0,4.0
107.0,0.0,4116.410256410258,4174.3589743589755,4065.1282051282064,4148.20512820513,4153.846153846155,4256.923076923078,4165.128205128207,4241.538461538463,4303.589743589745,4184.615384615386,4169.743589743592,4190.256410256412,4158.97435897436,4155.897435897437,823.0,2047.0,2048.0,0.0,0.0,4.0,4.0,4.0,4.0,0.0,4.0,4.0,4.0,4.0,0.0,4.0,4.0,4.0,4.0,4.0,4.0
108.0,0.0,4143.076923076925,4196.923076923078,4137.94871794872,4160.512820512822,4184.102564102565,4259.487179487181,4187.179487179489,4242.051282051283,4299.487179487181,4185.128205128207,4188.71794871795,4199.487179487181,4180.512820512822,4177.435897435899,854.0,2047.0,2048.0,0.0,0.0,4.0,4.0,4.0,4.0,0.0,4.0,4.0,4.0,4.0,0.0,4.0,4.0,4.0,4.0,4.0,4.0
109.0,0.0,4148.71794871795,4204.102564102565,4210.256410256412,4164.102564102565,4207.692307692309,4254.871794871797,4196.923076923078,4227.692307692309,4287.692307692309,4185.128205128207,4185.128205128207,4191.282051282053,4178.46153846154,4180.512820512822,331.0,2047.0,2048.0,0.0,0.0,4.0,4.0,4.0,4.0,0.0,4.0,4.0,4.0,4.0,0.0,4.0,4.0,4.0,4.0,4.0,4.0
110.0,0.0,4142.564102564104,4201.0256410256425,4214.871794871797,4169.23076923077,4207.692307692309,4256.923076923078,4196.923076923078,4222.051282051283,4289.23076923077,4184.615384615386,4179.487179487181,4193.333333333335,4169.23076923077,4175.384615384617,860.0,2047.0,2048.0,0.0,0.0,4.0,4.0,4.0,4.0,0.0,4.0,4.0,4.0,4.0,0.0,4.0,4.0,4.0,4.0,4.0,4.0
111.0,0.0,4141.538461538463,4199.487179487181,4189.743589743592,4170.256410256412,4201.0256410256425,4266.666666666668,4214.871794871797,4242.051282051283,4297.435897435899,4187.179487179489,4178.46153846154,4196.923076923078,4165.641025641027,4168.20512820513,823.0,2047.0,2048.0,0.0,0.0,4.0,4.0,4.0,4.0,0.0,4.0,4.0,4.0,4.0,0.0,4.0,4.0,4.0,4.0,4.0,4.0
112.0,0.0,4145.641025641027,4195.384615384617,4167.179487179489,4160.512820512822,4186.153846153848,4262.564102564104,4206.666666666668,4249.743589743592,4295.897435897437,4187.179487179489,4183.589743589745,4190.769230769232,4176.410256410258,4166.666666666668,854.0,2047.0,2048.0,0.0,0.0,4.0,4.0,4.0,4.0,0.0,4.0,4.0,4.0,4.0,0.0,4.0,4.0,4.0,4.0,4.0,4.0
113.0,0.0,4146.666666666668,4192.8205128205145,4122.051282051283,4160.000000000002,4162.051282051283,4251.794871794873,4163.589743589745,4232.8205128205145,4294.3589743589755,4184.615384615386,4190.769230769232,4199.487179487181,4185.641025641027,4176.923076923078,331.0,2047.0,2048.0,0.0,0.0,4.0,4.0,4.0,4.0,0.0,4.0,4.0,4.0,4.0,0.0,4.0,4.0,4.0,4.0,4.0,4.0
114.0,0.0,4141.0256410256425,4194.871794871797,4102.564102564104,4165.128205128207,4158.97435897436,4256.410256410258,4162.564102564104,4234.3589743589755,4297.435897435899,4184.615384615386,4187.179487179489,4199.487179487181,4174.871794871797,4178.46153846154,860.0,2047.0,2048.0,0.0,0.0,4.0,4.0,4.0,4.0,0.0,4.0,4.0,4.0,4.0,0.0,4.0,4.0,4.0,4.0,4.0,4.0
115.0,0.0,4142.051282051283,4195.384615384617,4188.20512820513,4160.512820512822,4202.051282051283,4264.615384615386,4214.3589743589755,4250.256410256412,4297.435897435899,4186.153846153848,4183.589743589745,4197.94871794872,4171.794871794873,4170.769230769232,823.0,2047.0,2048.0,0.0,0.0,4.0,4.0,4.0,4.0,0.0,4.0,4.0,4.0,4.0,0.0,4.0,4.0,4.0,4.0,4.0,4.0
116.0,0.0,4147.692307692309,4194.871794871797,4256.923076923078,4160.512820512822,4224.102564102565,4260.000000000002,4229.23076923077,4240.000000000002,4293.846153846155,4184.615384615386,4189.23076923077,4201.0256410256425,4187.179487179489,4172.8205128205145,854.0,2047.0,2048.0,0.0,0.0,4.0,4.0,4.0,4.0,0.0,4.0,4.0,4.0,4.0,0.0,4.0,4.0,4.0,4.0,4.0,4.0
117.0,0.0,4147.179487179489,4198.46153846154,4187.692307692309,4169.743589743592,4183.589743589745,4253.846153846155,4186.153846153848,4222.051282051283,4292.307692307694,4184.102564102565,4189.23076923077,4195.897435897437,4188.20512820513,4175.384615384617,331.0,2047.0,2048.0,0.0,0.0,4.0,4.0,4.0,4.0,0.0,4.0,4.0,4.0,4.0,0.0,4.0,4.0,4.0,4.0,4.0,4.0
118.0,0.0,4146.666666666668,4203.076923076925,4095.8974358974374,4171.794871794873,4150.769230769232,4261.0256410256425,4163.589743589745,4237.435897435899,4294.871794871797,4185.641025641027,4185.641025641027,4199.487179487181,4180.000000000002,4175.384615384617,860.0,2047.0,2048.0,0.0,0.0,4.0,4.0,4.0,4.0,0.0,4.0,4.0,4.0,4.0,0.0,4.0,4.0,4.0,4.0,4.0,4.0
119.0,0.0,4142.051282051283,4207.179487179489,4114.871794871797,4166.153846153848,4169.743589743592,4272.8205128205145,4192.307692307694,4255.897435897437,4296.410256410258,4185.128205128207,4185.128205128207,4196.410256410258,4178.97435897436,4173.846153846155,823.0,2047.0,2048.0,0.0,0.0,4.0,4.0,4.0,4.0,0.0,4.0,4.0,4.0,4.0,0.0,4.0,4.0,4.0,4.0,4.0,4.0
120.0,0.0,4146.153846153848,4214.3589743589755,4215.384615384617,4172.8205128205145,4211.282051282053,4274.3589743589755,4221.538461538463,4242.564102564104,4299.487179487181,4184.615384615386,4192.307692307694,4197.435897435899,4189.23076923077,4176.923076923078,854.0,2047.0,2048.0,0.0,0.0,4.0,4.0,4.0,4.0,0.0,4.0,4.0,4.0,4.0,0.0,4.0,4.0,4.0,4.0,4.0,4.0
121.0,0.0,4158.97435897436,4216.410256410258,4256.410256410258,4181.538461538463,4218.46153846154,4267.692307692309,4216.923076923078,4228.20512820513,4302.564102564104,4185.128205128207,4202.564102564104,4205.128205128207,4200.512820512822,4184.615384615386,331.0,2047.0,2048.0,0.0,0.0,4.0,4.0,4.0,4.0,0.0,4.0,4.0,4.0,4.0,0.0,4.0,4.0,4.0,4.0,4.0,4.0
122.0,0.0,4153.333333333335,4211.794871794873,4188.20512820513,4176.410256410258,4185.641025641027,4266.153846153848,4201.0256410256425,4238.97435897436,4298.46153846154,4185.641025641027,4200.512820512822,4199.487179487181,4193.333333333335,4180.000000000002,860.0,2047.0,2048.0,0.0,0.0,4.0,4.0,4.0,4.0,0.0,4.0,4.0,4.0,4.0,0.0,4.0,4.0,4.0,4.0,4.0,4.0
123.0,0.0,4150.256410256412,4212.307692307694,4109.743589743592,4174.871794871797,4153.846153846155,4268.71794871795,4179.487179487181,4245.128205128207,4294.3589743589755,4186.153846153848,4197.94871794872,4200.512820512822,4190.256410256412,4181.0256410256425,823.0,2047.0,2048.0,0.0,0.0,4.0,4.0,4.0,4.0,0.0,4.0,4.0,4.0,4.0,0.0,4.0,4.0,4.0,4.0,4.0,4.0
124.0,0.0,4163.076923076925,4217.94871794872,4089.230769230771,4183.589743589745,4151.282051282053,4266.666666666668,4158.46153846154,4231.282051282053,4293.846153846155,4185.641025641027,4202.051282051283,4200.000000000002,4200.512820512822,4191.282051282053,854.0,2047.0,2048.0,0.0,0.0,4.0,4.0,4.0,4.0,0.0,4.0,4.0,4.0,4.0,0.0,4.0,4.0,4.0,4.0,4.0,4.0
125.0,0.0,4159.487179487181,4216.923076923078,4148.71794871795,4179.487179487181,4188.20512820513,4265.128205128207,4189.743589743592,4236.923076923078,4297.435897435899,4183.589743589745,4194.3589743589755,4197.435897435899,4184.102564102565,4180.512820512822,331.0,2047.0,2048.0,0.0,0.0,4.0,4.0,4.0,4.0,0.0,4.0,4.0,4.0,4.0,0.0,4.0,4.0,4.0,4.0,4.0,4.0
126.0,0.0,4145.128205128207,4210.256410256412,4248.71794871795,4166.666666666668,4226.153846153848,4266.666666666668,4239.487179487181,4248.20512820513,4292.8205128205145,4183.589743589745,4178.46153846154,4195.897435897437,4156.923076923078,4161.538461538463,860.0,2047.0,2048.0,0.0,0.0,4.0,4.0,4.0,4.0,0.0,4.0,4.0,4.0,4.0,0.0,4.0,4.0,4.0,4.0,4.0,4.0
127.0,0.0,4145.128205128207,4212.8205128205145,4255.384615384617,4171.794871794873,4213.333333333335,4266.153846153848,4223.589743589745,4229.743589743592,4282.051282051283,4185.641025641027,4170.769230769232,4188.20512820513,4155.897435897437,4161.0256410256425,823.0,2047.0,2048.0,0.0,0.0,4.0,4.0,4.0,4.0,0.0,4.0,4.0,4.0,4.0,0.0,4.0,4.0,4.0,4.0,4.0,4.0
128.0,0.0,4144.102564102565,4216.410256410258,4147.692307692309,4176.410256410258,4168.20512820513,4266.666666666668,4172.8205128205145,4224.615384615386,4285.641025641027,4185.641025641027,4171.282051282053,4194.3589743589755,4157.435897435899,4162.564102564104,854.0,2047.0,2048.0,0.0,0.0,4.0,4.0,4.0,4.0,0.0,4.0,4.0,4.0,4.0,0.0,4.0,4.0,4.0,4.0,4.0,4.0
0.0,0.0,4138.46153846154,4211.282051282053,4067.692307692309,4167.692307692309,4145.128205128207,4263.076923076925,4153.846153846155,4243.589743589745,4297.94871794872,4185.128205128207,4178.97435897436,4194.871794871797,4162.051282051283,4165.128205128207,684.0,2047.0,2048.0,0.0,0.0,4.0,4.0,4.0,4.0,0.0,4.0,4.0,4.0,4.0,0.0,4.0,4.0,4.0,4.0,4.0,4.0
1.0,0.0,4153.846153846155,4215.384615384617,4133.333333333335,4168.71794871795,4173.333333333335,4256.923076923078,4177.435897435899,4240.000000000002,4297.435897435899,4185.641025641027,4186.153846153848,4194.3589743589755,4179.487179487181,4179.487179487181,828.0,2047.0,2048.0,0.0,0.0,4.0,4.0,4.0,4.0,0.0,4.0,4.0,4.0,4.0,0.0,4.0,4.0,4.0,4.0,4.0,4.0
2.0,0.0,4170.256410256412,4228.71794871795,4250.769230769232,4178.97435897436,4216.410256410258,4269.23076923077,4222.564102564104,4230.256410256412,4291.794871794873,4185.128205128207,4186.153846153848,4200.512820512822,4181.0256410256425,4183.589743589745,805.0,2047.0,2048.0,0.0,0.0,4.0,4.0,4.0,4.0,0.0,4.0,4.0,4.0,4.0,0.0,4.0,4.0,4.0,4.0,4.0,4.0
3.0,0.0,4164.615384615386,4237.435897435899,4252.307692307694,4180.512820512822,4211.794871794873,4280.512820512822,4230.256410256412,4230.256410256412,4285.641025641027,4185.128205128207,4180.512820512822,4193.333333333335,4168.71794871795,4175.897435897437,795.0,2047.0,2048.0,0.0,0.0,4.0,4.0,4.0,4.0,0.0,4.0,4.0,4.0,4.0,0.0,4.0,4.0,4.0,4.0,4.0,4.0
4.0,0.0,4161.538461538463,4232.8205128205145,4174.3589743589755,4181.538461538463,4178.46153846154,4268.71794871795,4190.256410256412,4226.666666666668,4279.487179487181,4185.128205128207,4173.846153846155,4194.3589743589755,4165.128205128207,4173.333333333335,0.0,2047.0,2048.0,0.0,0.0,4.0,4.0,4.0,4.0,0.0,4.0,4.0,4.0,4.0,0.0,4.0,4.0,4.0,4.0,4.0,4.0
5.0,0.0,4156.923076923078,4218.97435897436,4144.615384615386,4183.589743589745,4170.256410256412,4264.615384615386,4179.487179487181,4229.23076923077,4287.692307692309,4185.128205128207,4174.3589743589755,4193.846153846155,4168.20512820513,4168.20512820513,782.0,2047.0,2048.0,0.0,0.0,4.0,4.0,4.0,4.0,0.0,4.0,4.0,4.0,4.0,0.0,4.0,4.0,4.0,4.0,4.0,4.0
6.0,0.0,4147.692307692309,4213.333333333335,4172.307692307694,4179.487179487181,4188.71794871795,4275.897435897437,4204.615384615386,4236.923076923078,4297.435897435899,4184.615384615386,4179.487179487181,4190.256410256412,4169.743589743592,4165.128205128207,802.0,2047.0,2048.0,0.0,0.0,4.0,4.0,4.0,4.0,0.0,4.0,4.0,4.0,4.0,0.0,4.0,4.0,4.0,4.0,4.0,4.0
7.0,0.0,4155.897435897437,4223.076923076925,4192.307692307694,4180.512820512822,4196.410256410258,4273.846153846155,4205.128205128207,4232.307692307694,4292.307692307694,4185.128205128207,4181.538461538463,4196.410256410258,4171.794871794873,4172.8205128205145,809.0,2047.0,2048.0,0.0,0.0,4.0,4.0,4.0,4.0,0.0,4.0,4.0,4.0,4.0,0.0,4.0,4.0,4.0,4.0,4.0,4.0
8.0,0.0,4161.538461538463,4230.769230769232,4160.000000000002,4181.538461538463,4176.923076923078,4264.102564102565,4183.589743589745,4234.871794871797,4292.307692307694,4185.128205128207,4181.0256410256425,4190.256410256412,4170.769230769232,4173.333333333335,608.0,2047.0,2048.0,0.0,0.0,4.0,4.0,4.0,4.0,0.0,4.0,4.0,4.0,4.0,0.0,4.0,4.0,4.0,4.0,4.0,4.0
9.0,0.0,4154.871794871797,4229.23076923077,4130.256410256412,4178.46153846154,4167.179487179489,4262.051282051283,4179.487179487181,4245.641025641027,4296.923076923078,4185.128205128207,4181.0256410256425,4192.307692307694,4167.179487179489,4172.307692307694,0.0,2047.0,2048.0,0.0,0.0,4.0,4.0,4.0,4.0,0.0,4.0,4.0,4.0,4.0,0.0,4.0,4.0,4.0,4.0,4.0,4.0
10.0,0.0,4160.512820512822,4230.256410256412,4186.153846153848,4186.666666666668,4194.3589743589755,4266.153846153848,4208.71794871795,4240.512820512822,4294.871794871797,4185.128205128207,4183.589743589745,4196.410256410258,4173.333333333335,4177.94871794872,860.0,2047.0,2048.0,0.0,0.0,4.0,4.0,4.0,4.0,0.0,4.0,4.0,4.0,4.0,0.0,4.0,4.0,4.0,4.0,4.0,4.0
11.0,0.0,4169.743589743592,4234.3589743589755,4274.3589743589755,4194.871794871797,4227.692307692309,4272.307692307694,4237.435897435899,4231.282051282053,4291.282051282053,4185.641025641027,4183.589743589745,4193.333333333335,4176.923076923078,4178.97435897436,823.0,2047.0,2048.0,0.0,0.0,4.0,4.0,4.0,4.0,0.0,4.0,4.0,4.0,4.0,0.0,4.0,4.0,4.0,4.0,4.0,4.0
12.0,0.0,4166.153846153848,4229.743589743592,4244.102564102565,4191.282051282053,4203.589743589745,4270.769230769232,4207.179487179489,4227.179487179489,4289.743589743592,4184.615384615386,4178.97435897436,4199.487179487181,4171.794871794873,4176.410256410258,854.0,2047.0,2048.0,0.0,0.0,4.0,4.0,4.0,4.0,0.0,4.0,4.0,4.0,4.0,0.0,4.0,4.0,4.0,4.0,4.0,4.0
13.0,0.0,4160.512820512822,4217.94871794872,4093.333333333335,4186.153846153848,4138.97435897436,4262.564102564104,4149.23076923077,4230.256410256412,4293.333333333335,4183.076923076925,4186.153846153848,4198.46153846154,4178.46153846154,4182.051282051283,315.0,2047.0,2048.0,0.0,0.0,4.0,4.0,4.0,4.0,0.0,4.0,4.0,4.0,4.0,0.0,4.0,3.0,4.0,4.0,4.0,4.0
14.0,0.0,4165.128205128207,4214.871794871797,4057.435897435899,4188.20512820513,4140.512820512822,4263.076923076925,4153.846153846155,4238.46153846154,4300.000000000002,4183.589743589745,4196.410256410258,4198.46153846154,4189.743589743592,4187.692307692309,860.0,2047.0,2048.0,0.0,0.0,4.0,4.0,4.0,4.0,0.0,4.0,4.0,4.0,4.0,0.0,4.0,3.0,4.0,4.0,4.0,4.0
15.0,0.0,4168.71794871795,4225.128205128207,4214.3589743589755,4192.8205128205145,4212.8205128205145,4270.256410256412,4221.538461538463,4250.256410256412,4303.589743589745,4185.641025641027,4198.46153846154,4202.564102564104,4194.871794871797,4187.179487179489,823.0,2047.0,2048.0,0.0,0.0,4.0,4.0,4.0,4.0,0.0,4.0,4.0,4.0,4.0,0.0,4.0,3.0,4.0,4.0,4.0,4.0
16.0,0.0,4171.794871794873,4232.8205128205145,4329.23076923077,4197.435897435899,4242.564102564104,4274.3589743589755,4259.487179487181,4262.051282051283,4310.769230769232,4185.641025641027,4207.692307692309,4202.051282051283,4206.666666666668,4197.435897435899,0.0,2047.0,2048.0,0.0,0.0,4.0,4.0,4.0,4.0,0.0,4.0,4.0,4.0,4.0,0.0,4.0,3.0,4.0,4.0,4.0,4.0
17.0,0.0,4178.46153846154,4230.256410256412,4241.0256410256425,4197.94871794872,4189.743589743592,4277.435897435899,4221.538461538463,4261.0256410256425,4314.871794871797,4185.128205128207,4216.923076923078,4206.153846153848,4213.333333333335,4207.692307692309,0.0,2047.0,2048.0,0.0,0.0,4.0,4.0,4.0,4.0,0.0,4.0,4.0,4.0,4.0,0.0,4.0,3.0,4.0,4.0,4.0,4.0
18.0,0.0,4176.923076923078,4226.666666666668,4087.1794871794887,4197.435897435899,4132.307692307694,4273.333333333335,4164.615384615386,4249.23076923077,4303.589743589745,4184.102564102565,4206.666666666668,4201.0256410256425,4202.051282051283,4197.94871794872,0.0,2047.0,2048.0,0.0,0.0,4.0,4.0,4.0,4.0,0.0,4.0,4.0,4.0,4.0,0.0,4.0,3.0,4.0,4.0,4.0,4.0
19.0,0.0,4176.923076923078,4233.846153846155,4110.256410256412,4201.0256410256425,4157.435897435899,4273.333333333335,4173.333333333335,4246.153846153848,4292.8205128205145,4183.589743589745,4198.97435897436,4204.615384615386,4195.897435897437,4196.410256410258,0.0,2047.0,2048.0,0.0,0.0,4.0,4.0,4.0,4.0,0.0,4.0,4.0,4.0,4.0,0.0,4.0,3.0,4.0,4.0,4.0,4.0
20.0,0.0,4187.179487179489,4242.051282051283,4261.538461538463,4204.615384615386,4221.0256410256425,4282.051282051283,4228.71794871795,4251.282051282053,4298.97435897436,4185.128205128207,4211.794871794873,4209.743589743592,4206.153846153848,4209.23076923077,0.0,2047.0,2048.0,0.0,0.0,4.0,4.0,4.0,4.0,0.0,4.0,4.0,4.0,4.0,0.0,4.0,3.0,4.0,4.0,4.0,4.0
21.0,0.0,4189.743589743592,4236.410256410258,4303.076923076925,4200.000000000002,4226.666666666668,4278.97435897436,4239.487179487181,4248.71794871795,4301.538461538463,4186.666666666668,4214.3589743589755,4199.487179487181,4211.794871794873,4206.666666666668,0.0,2047.0,2048.0,0.0,0.0,4.0,4.0,4.0,4.0,0.0,4.0,4.0,4.0,4.0,0.0,4.0,3.0,4.0,4.0,4.0,4.0
22.0,0.0,4178.46153846154,4227.692307692309,4209.743589743592,4193.333333333335,4181.538461538463,4272.307692307694,4200.000000000002,4243.076923076925,4292.8205128205145,4185.641025641027,4200.000000000002,4201.538461538463,4204.102564102565,4197.435897435899,0.0,2047.0,2048.0,0.0,0.0,4.0,4.0,4.0,4.0,0.0,4.0,4.0,4.0,4.0,0.0,4.0,3.0,4.0,4.0,4.0,4.0
23.0,0.0,4170.769230769232,4227.179487179489,4116.410256410258,4191.282051282053,4147.692307692309,4271.282051282053,4171.282051282053,4246.666666666668,4295.384615384617,4185.641025641027,4201.0256410256425,4204.102564102565,4200.000000000002,4197.94871794872,0.0,2047.0,2048.0,0.0,0.0,4.0,4.0,4.0,4.0,0.0,4.0,4.0,4.0,4.0,0.0,4.0,3.0,4.0,4.0,4.0,4.0
24.0,0.0,4172.8205128205145,4229.743589743592,4104.102564102565,4190.256410256412,4155.384615384617,4267.692307692309,4171.282051282053,4247.692307692309,4301.538461538463,4185.128205128207,4209.743589743592,4202.051282051283,4203.076923076925,4196.923076923078,0.0,2047.0,2048.0,0.0,0.0,4.0,4.0,4.0,4.0,0.0,4.0,4.0,4.0,4.0,0.0,4.0,3.0,4.0,4.0,4.0,4.0
25.0,0.0,4166.666666666668,4229.743589743592,4171.794871794873,4184.615384615386,4190.256410256412,4262.564102564104,4186.666666666668,4234.3589743589755,4288.20512820513,4184.615384615386,4196.923076923078,4197.435897435899,4195.384615384617,4186.666666666668,0.0,2047.0,2048.0,0.0,0.0,4.0,4.0,4.0,4.0,0.0,4.0,4.0,4.0,4.0,0.0,4.0,3.0,4.0,4.0,4.0,4.0
26.0,0.0,4163.076923076925,4233.333333333335,4263.076923076925,4183.076923076925,4224.102564102565,4262.051282051283,4208.71794871795,4217.435897435899,4273.333333333335,4184.102564102565,4184.615384615386,4189.23076923077,4180.512820512822,4180.000000000002,0.0,2047.0,2048.0,0.0,0.0,4.0,4.0,4.0,4.0,0.0,4.0,4.0,4.0,4.0,0.0,4.0,3.0,4.0,4.0,4.0,4.0
27.0,0.0,4171.794871794873,4233.333333333335,4274.3589743589755,4189.743589743592,4222.564102564104,4258.97435897436,4202.564102564104,4213.333333333335,4276.923076923078,4185.128205128207,4194.3589743589755,4200.000000000002,4183.589743589745,4187.692307692309,0.0,2047.0,2048.0,0.0,0.0,4.0,4.0,4.0,4.0,0.0,4.0,4.0,4.0,4.0,0.0,4.0,3.0,4.0,4.0,4.0,4.0
28.0,0.0,4167.692307692309,4229.23076923077,4161.0256410256425,4186.153846153848,4169.743589743592,4254.871794871797,4163.589743589745,4221.0256410256425,4283.076923076925,4185.128205128207,4197.435897435899,4200.000000000002,4190.769230769232,4192.8205128205145,0.0,2047.0,2048.0,0.0,0.0,4.0,4.0,4.0,4.0,0.0,4.0,4.0,4.0,4.0,0.0,4.0,3.0,4.0,4.0,4.0,4.0
29.0,0.0,4154.871794871797,4229.23076923077,4059.487179487181,4174.871794871797,4136.410256410258,4260.000000000002,4145.128205128207,4230.256410256412,4281.0256410256425,4185.641025641027,4181.538461538463,4193.333333333335,4173.846153846155,4179.487179487181,0.0,2047.0,2048.0,0.0,0.0,4.0,4.0,4.0,4.0,0.0,4.0,4.0,4.0,4.0,0.0,4.0,3.0,4.0,4.0,4.0,4.0
30.0,0.0,4149.23076923077,4232.307692307694,4110.769230769232,4171.794871794873,4173.333333333335,4262.564102564104,4172.8205128205145,4235.897435897437,4280.512820512822,4185.641025641027,4170.256410256412,4194.871794871797,4151.794871794873,4160.000000000002,0.0,2047.0,2048.0,0.0,0.0,4.0,4.0,4.0,4.0,0.0,4.0,4.0,4.0,4.0,0.0,4.0,3.0,4.0,4.0,4.0,4.0
31.0,0.0,4143.589743589745,4229.23076923077,4237.435897435899,4171.794871794873,4224.102564102565,4258.46153846154,4209.743589743592,4230.256410256412,4281.0256410256425,4184.615384615386,4172.8205128205145,4186.666666666668,4156.410256410258,4156.923076923078,0.0,2047.0,2048.0,0.0,0.0,4.0,4.0,4.0,4.0,0.0,4.0,4.0,4.0,4.0,0.0,4.0,3.0,4.0,4.0,4.0,4.0
32.0,0.0,4144.102564102565,4223.076923076925,4257.94871794872,4170.256410256412,4223.589743589745,4260.000000000002,4216.410256410258,4232.8205128205145,4287.692307692309,4185.128205128207,4182.564102564104,4188.20512820513,4176.923076923078,4166.666666666668,0.0,2047.0,2048.0,0.0,0.0,4.0,4.0,4.0,4.0,0.0,4.0,4.0,4.0,4.0,0.0,4.0,3.0,4.0,4.0,4.0,4.0
33.0,0.0,4152.307692307694,4221.0256410256425,4160.512820512822,4169.23076923077,4179.487179487181,4264.102564102565,4193.846153846155,4248.71794871795,4296.923076923078,4184.615384615386,4190.769230769232,4188.20512820513,4185.641025641027,4174.3589743589755,0.0,2047.0,2048.0,0.0,0.0,4.0,4.0,4.0,4.0,0.0,4.0,4.0,4.0,4.0,0.0,4.0,3.0,4.0,4.0,4.0,4.0
34.0,0.0,4167.692307692309,4231.282051282053,4126.666666666668,4180.512820512822,4163.076923076925,4261.538461538463,4166.666666666668,4236.410256410258,4290.256410256412,4183.076923076925,4197.435897435899,4189.23076923077,4194.3589743589755,4189.23076923077,0.0,2047.0,2048.0,0.0,0.0,4.0,4.0,4.0,4.0,0.0,4.0,4.0,4.0,4.0,0.0,4.0,3.0,4.0,4.0,4.0,4.0
35.0,0.0,4185.128205128207,4238.97435897436,4185.128205128207,4191.794871794873,4187.179487179489,4262.564102564104,4174.3589743589755,4219.487179487181,4286.153846153848,4184.102564102565,4212.8205128205145,4201.538461538463,4215.384615384617,4206.666666666668,0.0,2047.0,2048.0,0.0,0.0,4.0,4.0,4.0,4.0,0.0,4.0,4.0,4.0,4.0,0.0,4.0,3.0,4.0,4.0,4.0,4.0
36.0,0.0,4175.384615384617,4222.051282051283,4200.000000000002,4177.94871794872,4196.923076923078,4272.8205128205145,4211.282051282053,4241.538461538463,4296.410256410258,4185.641025641027,4219.487179487181,4198.46153846154,4223.589743589745,4201.0256410256425,0.0,2047.0,2048.0,0.0,0.0,4.0,4.0,4.0,4.0,0.0,4.0,4.0,4.0,4.0,0.0,4.0,3.0,4.0,4.0,4.0,4.0
37.0,0.0,4160.000000000002,4210.769230769232,4171.794871794873,4163.589743589745,4184.615384615386,4264.615384615386,4202.051282051283,4252.8205128205145,4300.512820512822,4185.128205128207,4215.384615384617,4198.97435897436,4217.435897435899,4193.333333333335,0.0,2047.0,2048.0,0.0,0.0,4.0,4.0,4.0,4.0,0.0,4.0,4.0,4.0,4.0,0.0,4.0,3.0,4.0,4.0,4.0,4.0
38.0,0.0,4172.8205128205145,4226.666666666668,4156.410256410258,4173.846153846155,4172.8205128205145,4247.692307692309,4156.923076923078,4231.282051282053,4292.8205128205145,4185.641025641027,4216.923076923078,4199.487179487181,4216.410256410258,4202.051282051283,0.0,2047.0,2048.0,0.0,0.0,4.0,4.0,4.0,4.0,0.0,4.0,4.0,4.0,4.0,0.0,4.0,3.0,4.0,4.0,4.0,4.0
39.0,0.0,4180.512820512822,4234.871794871797,4171.282051282053,4180.000000000002,4183.589743589745,4252.307692307694,4167.692307692309,4223.589743589745,4290.256410256412,4186.666666666668,4213.846153846155,4196.923076923078,4214.3589743589755,4202.564102564104,0.0,2047.0,2048.0,0.0,0.0,4.0,4.0,4.0,4.0,0.0,4.0,4.0,4.0,4.0,0.0,4.0,3.0,4.0,4.0,4.0,4.0
40.0,0.0,4169.23076923077,4227.692307692309,4229.743589743592,4174.871794871797,4217.94871794872,4258.46153846154,4216.923076923078,4233.333333333335,4294.3589743589755,4185.641025641027,4210.256410256412,4201.538461538463,4216.923076923078,4195.897435897437,0.0,2047.0,2048.0,0.0,0.0,4.0,4.0,4.0,4.0,0.0,4.0,4.0,4.0,4.0,0.0,4.0,3.0,4.0,4.0,4.0,4.0
41.0,0.0,4170.256410256412,4224.102564102565,4256.410256410258,4175.897435897437,4216.410256410258,4247.692307692309,4216.923076923078,4230.256410256412,4290.256410256412,4184.615384615386,4212.8205128205145,4196.410256410258,4224.102564102565,4199.487179487181,0.0,2047.0,2048.0,0.0,0.0,4.0,4.0,4.0,4.0,0.0,4.0,4.0,4.0,4.0,0.0,4.0,3.0,4.0,4.0,4.0,4.0
42.0,0.0,4177.94871794872,4227.179487179489,4152.8205128205145,4178.46153846154,4161.538461538463,4246.666666666668,4164.102564102565,4224.615384615386,4279.487179487181,4184.615384615386,4205.128205128207,4197.435897435899,4213.846153846155,4200.512820512822,0.0,2047.0,2048.0,0.0,0.0,4.0,4.0,4.0,4.0,0.0,4.0,4.0,4.0,4.0,0.0,4.0,3.0,4.0,4.0,4.0,4.0
43.0,0.0,4167.692307692309,4224.102564102565,4036.4102564102577,4170.256410256412,4128.20512820513,4256.410256410258,4130.769230769232,4229.23076923077,4279.487179487181,4184.102564102565,4198.97435897436,4198.97435897436,4205.128205128207,4197.435897435899,0.0,2047.0,2048.0,0.0,0.0,4.0,4.0,4.0,4.0,0.0,4.0,4.0,4.0,4.0,0.0,4.0,3.0,4.0,4.0,4.0,4.0
44.0,0.0,4160.512820512822,4219.487179487181,4131.794871794873,4164.102564102565,4182.051282051283,4260.000000000002,4180.512820512822,4240.512820512822,4293.846153846155,4184.615384615386,4213.333333333335,4194.3589743589755,4221.538461538463,4199.487179487181,0.0,2047.0,2048.0,0.0,0.0,4.0,4.0,4.0,4.0,0.0,4.0,4.0,4.0,4.0,0.0,4.0,3.0,4.0,4.0,4.0,4.0
45.0,0.0,4163.589743589745,4220.512820512822,4315.384615384617,4165.641025641027,4247.692307692309,4268.71794871795,4254.3589743589755,4247.179487179489,4298.97435897436,4185.128205128207,4212.8205128205145,4195.384615384617,4225.641025641027,4192.8205128205145,0.0,2047.0,2048.0,0.0,0.0,4.0,4.0,4.0,4.0,0.0,4.0,4.0,4.0,4.0,0.0,4.0,3.0,4.0,4.0,4.0,4.0
46.0,0.0,4158.97435897436,4226.666666666668,4286.666666666668,4168.71794871795,4217.435897435899,4278.46153846154,4246.153846153848,4245.641025641027,4294.3589743589755,4185.128205128207,4197.435897435899,4190.256410256412,4210.256410256412,4183.589743589745,0.0,2047.0,2048.0,0.0,0.0,4.0,4.0,4.0,4.0,0.0,4.0,4.0,4.0,4.0,0.0,4.0,3.0,4.0,4.0,4.0,4.0
47.0,0.0,4167.179487179489,4236.923076923078,4118.46153846154,4178.46153846154,4149.743589743592,4280.512820512822,4178.97435897436,4256.923076923078,4304.615384615386,4185.128205128207,4211.282051282053,4198.97435897436,4223.589743589745,4200.000000000002,0.0,2047.0,2048.0,0.0,0.0,4.0,4.0,4.0,4.0,0.0,4.0,4.0,4.0,4.0,0.0,4.0,3.0,4.0,4.0,4.0,4.0
48.0,0.0,4181.0256410256425,4237.435897435899,4074.358974358976,4185.641025641027,4143.076923076925,4278.97435897436,4157.435897435899,4271.282051282053,4315.897435897437,4184.615384615386,4227.179487179489,4204.102564102565,4242.051282051283,4214.871794871797,0.0,2047.0,2048.0,0.0,0.0,4.0,4.0,4.0,4.0,0.0,4.0,4.0,4.0,4.0,0.0,4.0,3.0,4.0,4.0,4.0,4.0
49.0,0.0,4172.8205128205145,4231.794871794873,4181.538461538463,4178.97435897436,4191.794871794873,4270.256410256412,4194.871794871797,4255.384615384617,4301.0256410256425,4184.615384615386,4211.794871794873,4193.333333333335,4226.666666666668,4197.94871794872,0.0,2047.0,2048.0,0.0,0.0,4.0,4.0,4.0,4.0,0.0,4.0,4.0,4.0,4.0,0.0,4.0,3.0,4.0,4.0,4.0,4.0
50.0,0.0,4166.666666666668,4235.897435897437,4272.8205128205145,4173.846153846155,4223.589743589745,4268.20512820513,4228.71794871795,4229.743589743592,4280.000000000002,4186.153846153848,4198.46153846154,4195.384615384617,4210.769230769232,4186.666666666668,0.0,2047.0,2048.0,0.0,0.0,4.0,4.0,4.0,4.0,0.0,4.0,4.0,4.0,4.0,0.0,4.0,3.0,4.0,4.0,4.0,4.0
51.0,0.0,4172.8205128205145,4243.076923076925,4231.282051282053,4177.94871794872,4201.0256410256425,4279.487179487181,4219.487179487181,4228.20512820513,4280.512820512822,4185.128205128207,4195.897435897437,4191.282051282053,4208.71794871795,4189.743589743592,0.0,2047.0,2048.0,0.0,0.0,4.0,4.0,4.0,4.0,0.0,4.0,4.0,4.0,4.0,0.0,4.0,3.0,4.0,4.0,4.0,4.0
52.0,0.0,4180.512820512822,4246.666666666668,4155.384615384617,4188.20512820513,4168.71794871795,4282.051282051283,4187.179487179489,4237.435897435899,4292.307692307694,4184.102564102565,4199.487179487181,4194.871794871797,4215.897435897437,4197.435897435899,0.0,2047.0,2048.0,0.0,0.0,4.0,4.0,4.0,4.0,0.0,4.0,4.0,4.0,4.0,0.0,4.0,3.0,4.0,4.0,4.0,4.0
53.0,0.0,4187.692307692309,4248.20512820513,4156.410256410258,4191.794871794873,4167.692307692309,4270.256410256412,4177.94871794872,4234.3589743589755,4294.871794871797,4187.179487179489,4218.46153846154,4205.641025641027,4238.46153846154,4213.846153846155,0.0,2047.0,2048.0,0.0,0.0,4.0,4.0,4.0,4.0,0.0,4.0,4.0,4.0,4.0,0.0,4.0,3.0,4.0,4.0,4.0,4.0
54.0,0.0,4190.769230769232,4252.307692307694,4192.307692307694,4189.23076923077,4187.179487179489,4271.282051282053,4191.794871794873,4227.692307692309,4290.769230769232,4187.692307692309,4227.692307692309,4200.000000000002,4252.307692307694,4218.46153846154,0.0,2047.0,2048.0,0.0,0.0,4.0,4.0,4.0,4.0,0.0,4.0,4.0,4.0,4.0,0.0,4.0,3.0,4.0,4.0,4.0,4.0
55.0,0.0,4193.846153846155,4260.000000000002,4209.743589743592,4191.282051282053,4193.333333333335,4282.051282051283,4200.512820512822,4231.794871794873,4292.307692307694,4184.615384615386,4222.564102564104,4202.564102564104,4245.128205128207,4213.846153846155,0.0,2047.0,2048.0,0.0,0.0,4.0,4.0,4.0,4.0,0.0,4.0,4.0,4.0,4.0,0.0,4.0,3.0,4.0,4.0,4.0,4.0
56.0,0.0,4196.923076923078,4262.564102564104,4195.384615384617,4194.3589743589755,4182.051282051283,4281.538461538463,4196.410256410258,4237.435897435899,4292.307692307694,4183.589743589745,4220.000000000002,4202.051282051283,4237.94871794872,4213.333333333335,0.0,2047.0,2048.0,0.0,0.0,4.0,4.0,4.0,4.0,0.0,4.0,4.0,4.0,4.0,0.0,4.0,3.0,4.0,4.0,4.0,4.0
57.0,0.0,4190.256410256412,4252.307692307694,4176.923076923078,4188.20512820513,4183.076923076925,4275.384615384617,4186.666666666668,4230.256410256412,4283.589743589745,4186.153846153848,4214.871794871797,4200.512820512822,4230.256410256412,4207.692307692309,0.0,2047.0,2048.0,0.0,0.0,4.0,4.0,4.0,4.0,0.0,4.0,4.0,4.0,4.0,0.0,4.0,3.0,4.0,4.0,4.0,4.0
58.0,0.0,4175.897435897437,4244.102564102565,4185.641025641027,4180.512820512822,4192.307692307694,4275.384615384617,4184.102564102565,4218.46153846154,4275.897435897437,4186.666666666668,4208.20512820513,4200.000000000002,4222.564102564104,4201.538461538463,0.0,2047.0,2048.0,0.0,0.0,4.0,4.0,4.0,4.0,0.0,4.0,4.0,4.0,4.0,0.0,4.0,3.0,4.0,4.0,4.0,4.0
59.0,0.0,4178.97435897436,4249.23076923077,4196.410256410258,4184.615384615386,4190.769230769232,4275.384615384617,4190.769230769232,4223.589743589745,4279.487179487181,4185.128205128207,4215.384615384617,4196.923076923078,4231.794871794873,4210.256410256412,0.0,2047.0,2048.0,0.0,0.0,4.0,4.0,4.0,4.0,0.0,4.0,4.0,4.0,4.0,0.0,4.0,3.0,4.0,4.0,4.0,4.0
60.0,0.0,4193.846153846155,4256.410256410258,4188.71794871795,4191.794871794873,4184.615384615386,4266.666666666668,4187.179487179489,4231.282051282053,4283.589743589745,4185.128205128207,4222.564102564104,4206.666666666668,4240.000000000002,4223.589743589745,0.0,2047.0,2048.0,0.0,0.0,4.0,4.0,4.0,4.0,0.0,4.0,4.0,4.0,4.0,0.0,4.0,3.0,4.0,4.0,4.0,4.0
61.0,0.0,4191.282051282053,4257.94871794872,4175.897435897437,4192.8205128205145,4178.97435897436,4262.051282051283,4175.384615384617,4221.0256410256425,4278.97435897436,4184.615384615386,4214.871794871797,4203.589743589745,4233.846153846155,4218.46153846154,0.0,2047.0,2048.0,0.0,0.0,4.0,4.0,4.0,4.0,0.0,4.0,4.0,4.0,4.0,0.0,4.0,3.0,4.0,4.0,4.0,4.0
62.0,0.0,4187.179487179489,4255.384615384617,4188.20512820513,4191.794871794873,4185.641025641027,4274.3589743589755,4191.794871794873,4223.589743589745,4278.46153846154,4184.102564102565,4209.23076923077,4200.512820512822,4229.23076923077,4210.769230769232,0.0,2047.0,2048.0,0.0,0.0,4.0,4.0,4.0,4.0,0.0,4.0,4.0,4.0,4.0,0.0,4.0,3.0,4.0,4.0,4.0,4.0
63.0,0.0,4192.8205128205145,4252.8205128205145,4203.589743589745,4187.692307692309,4191.794871794873,4282.564102564104,4207.692307692309,4234.3589743589755,4281.538461538463,4185.128205128207,4213.333333333335,4206.153846153848,4231.282051282053,4212.8205128205145,0.0,2047.0,2048.0,0.0,0.0,4.0,4.0,4.0,4.0,0.0,4.0,4.0,4.0,4.0,0.0,4.0,3.0,4.0,4.0,4.0,4.0
64.0,0.0,4194.3589743589755,4255.384615384617,4192.307692307694,4188.71794871795,4185.128205128207,4274.871794871797,4188.20512820513,4220.512820512822,4276.410256410258,4185.641025641027,4211.282051282053,4197.94871794872,4228.71794871795,4210.256410256412,684.0,2047.0,2048.0,0.0,0.0,4.0,4.0,4.0,4.0,0.0,4.0,4.0,4.0,4.0,0.0,4.0,3.0,4.0,4.0,4.0,4.0
65.0,0.0,4187.692307692309,4251.794871794873,4175.384615384617,4188.71794871795,4183.589743589745,4281.0256410256425,4186.666666666668,4217.94871794872,4277.435897435899,4185.128205128207,4198.97435897436,4194.871794871797,4212.307692307694,4199.487179487181,828.0,2047.0,2048.0,0.0,0.0,4.0,4.0,4.0,4.0,0.0,4.0,4.0,4.0,4.0,0.0,4.0,3.0,4.0,4.0,4.0,4.0
66.0,0.0,4175.897435897437,4239.487179487181,4172.307692307694,4181.0256410256425,4185.641025641027,4300.000000000002,4215.897435897437,4247.179487179489,4289.743589743592,4185.641025641027,4192.307692307694,4192.307692307694,4200.000000000002,4188.71794871795,805.0,2047.0,2048.0,0.0,0.0,4.0,4.0,4.0,4.0,0.0,4.0,4.0,4.0,4.0,0.0,4.0,3.0,4.0,4.0,4.0,4.0
67.0,0.0,4172.307692307694,4238.97435897436,4187.692307692309,4178.46153846154,4187.179487179489,4297.94871794872,4217.435897435899,4250.769230769232,4290.256410256412,4186.666666666668,4195.897435897437,4195.897435897437,4202.051282051283,4186.666666666668,795.0,2047.0,2048.0,0.0,0.0,4.0,4.0,4.0,4.0,0.0,4.0,4.0,4.0,4.0,0.0,4.0,3.0,4.0,4.0,4.0,4.0
68.0,0.0,4177.435897435899,4245.128205128207,4194.3589743589755,4185.641025641027,4186.153846153848,4281.0256410256425,4197.435897435899,4223.589743589745,4275.897435897437,4185.641025641027,4197.94871794872,4203.589743589745,4207.179487179489,4190.256410256412,0.0,2047.0,2048.0,0.0,0.0,4.0,4.0,4.0,4.0,0.0,4.0,4.0,4.0,4.0,0.0,4.0,3.0,4.0,4.0,4.0,4.0
69.0,0.0,4181.0256410256425,4244.615384615386,4174.3589743589755,4190.256410256412,4178.97435897436,4278.46153846154,4195.384615384617,4224.615384615386,4281.0256410256425,4184.615384615386,4206.666666666668,4196.923076923078,4221.538461538463,4199.487179487181,782.0,2047.0,2048.0,0.0,0.0,4.0,4.0,4.0,4.0,0.0,4.0,4.0,4.0,4.0,0.0,4.0,3.0,4.0,4.0,4.0,4.0
70.0,0.0,4191.794871794873,4250.769230769232,4176.923076923078,4191.282051282053,4182.564102564104,4284.102564102565,4197.435897435899,4244.102564102565,4297.94871794872,4185.641025641027,4221.538461538463,4205.128205128207,4245.641025641027,4214.871794871797,802.0,2047.0,2048.0,0.0,0.0,4.0,4.0,4.0,4.0,0.0,4.0,4.0,4.0,4.0,0.0,4.0,3.0,4.0,4.0,4.0,4.0
71.0,0.0,4200.512820512822,4260.000000000002,4194.871794871797,4192.307692307694,4188.20512820513,4280.512820512822,4188.20512820513,4241.538461538463,4290.769230769232,4185.641025641027,4224.102564102565,4206.666666666668,4248.71794871795,4220.000000000002,809.0,2047.0,2048.0,0.0,0.0,4.0,4.0,4.0,4.0,0.0,4.0,4.0,4.0,4.0,0.0,4.0,3.0,4.0,4.0,4.0,4.0
72.0,0.0,4197.94871794872,4257.94871794872,4187.179487179489,4189.23076923077,4183.589743589745,4272.307692307694,4183.076923076925,4230.769230769232,4276.410256410258,4184.615384615386,4217.435897435899,4196.410256410258,4234.871794871797,4211.794871794873,608.0,2047.0,2048.0,0.0,0.0,4.0,4.0,4.0,4.0,0.0,4.0,4.0,4.0,4.0,0.0,4.0,3.0,4.0,4.0,4.0,4.0
73.0,0.0,4197.435897435899,4250.256410256412,4184.615384615386,4185.128205128207,4188.71794871795,4278.46153846154,4188.20512820513,4231.282051282053,4281.538461538463,4185.128205128207,4216.410256410258,4200.512820512822,4233.333333333335,4207.179487179489,0.0,2047.0,2048.0,0.0,0.0,4.0,4.0,4.0,4.0,0.0,4.0,4.0,4.0,4.0,0.0,4.0,3.0,4.0,4.0,4.0,4.0
74.0,0.0,4193.333333333335,4244.615384615386,4214.3589743589755,4187.179487179489,4202.564102564104,4290.256410256412,4205.128205128207,4239.487179487181,4293.846153846155,4185.128205128207,4216.923076923078,4198.97435897436,4234.871794871797,4209.743589743592,860.0,2047.0,2048.0,0.0,0.0,4.0,4.0,4.0,4.0,0.0,4.0,4.0,4.0,4.0,0.0,4.0,3.0,4.0,4.0,4.0,4.0
75.0,0.0,4188.20512820513,4233.846153846155,4224.615384615386,4188.71794871795,4196.410256410258,4285.128205128207,4208.71794871795,4244.102564102565,4293.846153846155,4185.641025641027,4214.3589743589755,4198.46153846154,4231.794871794873,4210.769230769232,823.0,2047.0,2048.0,0.0,0.0,4.0,4.0,4.0,4.0,0.0,4.0,4.0,4.0,4.0,0.0,4.0,3.0,4.0,4.0,4.0,4.0
76.0,0.0,4186.153846153848,4225.128205128207,4147.692307692309,4183.076923076925,4163.076923076925,4278.46153846154,4173.846153846155,4237.435897435899,4283.076923076925,4184.615384615386,4210.256410256412,4195.384615384617,4227.692307692309,4205.128205128207,854.0,2047.0,2048.0,0.0,0.0,4.0,4.0,4.0,4.0,0.0,4.0,4.0,4.0,4.0,0.0,4.0,3.0,4.0,4.0,4.0,4.0
77.0,0.0,4178.46153846154,4226.666666666668,4092.8205128205145,4179.487179487181,4156.410256410258,4289.23076923077,4155.897435897437,4229.23076923077,4276.410256410258,4183.076923076925,4202.564102564104,4190.256410256412,4213.333333333335,4194.871794871797,313.0,2047.0,2048.0,0.0,0.0,4.0,4.0,4.0,4.0,0.0,4.0,4.0,4.0,4.0,0.0,4.0,3.0,4.0,4.0,4.0,4.0
78.0,0.0,4171.282051282053,4223.589743589745,4186.666666666668,4183.589743589745,4200.512820512822,4294.871794871797,4194.871794871797,4228.71794871795,4276.923076923078,4184.102564102565,4197.435897435899,4196.923076923078,4202.051282051283,4189.23076923077,860.0,2047.0,2048.0,0.0,0.0,4.0,4.0,4.0,4.0,0.0,4.0,4.0,4.0,4.0,0.0,4.0,3.0,4.0,4.0,4.0,4.0
79.0,0.0,4171.794871794873,4214.871794871797,4277.94871794872,4182.051282051283,4225.128205128207,4284.102564102565,4228.20512820513,4235.897435897437,4284.615384615386,4186.153846153848,4200.512820512822,4195.384615384617,4208.71794871795,4191.282051282053,823.0,2047.0,2048.0,0.0,0.0,4.0,4.0,4.0,4.0,0.0,4.0,4.0,4.0,4.0,0.0,4.0,3.0,4.0,4.0,4.0,4.0
80.0,0.0,4180.000000000002,4217.435897435899,4221.538461538463,4179.487179487181,4192.8205128205145,4280.512820512822,4201.538461538463,4241.0256410256425,4290.256410256412,4184.615384615386,4212.8205128205145,4201.538461538463,4224.102564102565,4202.564102564104,854.0,2047.0,2048.0,0.0,0.0,4.0,4.0,4.0,4.0,0.0,4.0,4.0,4.0,4.0,0.0,4.0,3.0,4.0,4.0,4.0,4.0
81.0,0.0,4183.076923076925,4222.564102564104,4118.97435897436,4176.923076923078,4156.923076923078,4281.538461538463,4162.051282051283,4239.487179487181,4292.8205128205145,4185.128205128207,4218.97435897436,4206.666666666668,4231.794871794873,4209.743589743592,313.0,2047.0,2048.0,0.0,0.0,4.0,4.0,4.0,4.0,0.0,4.0,4.0,4.0,4.0,0.0,4.0,3.0,4.0,4.0,4.0,4.0
82.0,0.0,4172.8205128205145,4212.8205128205145,4123.076923076925,4166.153846153848,4169.23076923077,4278.46153846154,4171.282051282053,4233.846153846155,4292.307692307694,4186.153846153848,4206.666666666668,4197.435897435899,4220.000000000002,4200.000000000002,860.0,2047.0,2048.0,0.0,0.0,4.0,4.0,4.0,4.0,0.0,4.0,4.0,4.0,4.0,0.0,4.0,3.0,4.0,4.0,4.0,4.0
83.0,0.0,4160.000000000002,4201.538461538463,4200.000000000002,4162.564102564104,4204.102564102565,4278.97435897436,4204.615384615386,4233.846153846155,4286.153846153848,4185.128205128207,4194.871794871797,4196.923076923078,4201.538461538463,4185.128205128207,823.0,2047.0,2048.0,0.0,0.0,4.0,4.0,4.0,4.0,0.0,4.0,4.0,4.0,4.0,0.0,4.0,3.0,4.0,4.0,4.0,4.0
84.0,0.0,4155.384615384617,4200.512820512822,4211.794871794873,4166.153846153848,4204.102564102565,4280.512820512822,4204.615384615386,4230.769230769232,4281.0256410256425,4185.641025641027,4188.71794871795,4192.8205128205145,4196.410256410258,4179.487179487181,854.0,2047.0,2048.0,0.0,0.0,4.0,4.0,4.0,4.0,0.0,4.0,4.0,4.0,4.0,0.0,4.0,3.0,4.0,4.0,4.0,4.0
85.0,0.0,4158.46153846154,4202.051282051283,4173.333333333335,4162.564102564104,4187.692307692309,4279.487179487181,4180.000000000002,4223.076923076925,4278.97435897436,4185.641025641027,4182.564102564104,4194.3589743589755,4195.897435897437,4183.076923076925,313.0,2047.0,2048.0,0.0,0.0,4.0,4.0,4.0,4.0,0.0,4.0,4.0,4.0,4.0,0.0,4.0,3.0,4.0,4.0,4.0,4.0
86.0,0.0,4160.512820512822,4201.0256410256425,4164.102564102565,4161.538461538463,4183.589743589745,4278.97435897436,4180.512820512822,4225.641025641027,4278.46153846154,4185.128205128207,4187.179487179489,4200.000000000002,4199.487179487181,4188.20512820513,860.0,2047.0,2048.0,0.0,0.0,4.0,4.0,4.0,4.0,0.0,4.0,4.0,4.0,4.0,0.0,4.0,3.0,4.0,4.0,4.0,4.0
87.0,0.0,4165.641025641027,4196.410256410258,4178.46153846154,4166.153846153848,4186.153846153848,4271.794871794873,4191.282051282053,4231.794871794873,4276.923076923078,4185.641025641027,4198.97435897436,4197.435897435899,4211.282051282053,4194.871794871797,823.0,2047.0,2048.0,0.0,0.0,4.0,4.0,4.0,4.0,0.0,4.0,4.0,4.0,4.0,0.0,4.0,3.0,4.0,4.0,4.0,4.0
88.0,0.0,4165.128205128207,4186.666666666668,4156.923076923078,4161.538461538463,4179.487179487181,4265.128205128207,4176.923076923078,4230.256410256412,4280.000000000002,4185.128205128207,4198.46153846154,4201.0256410256425,4206.666666666668,4197.435897435899,854.0,2047.0,2048.0,0.0,0.0,4.0,4.0,4.0,4.0,0.0,4.0,4.0,4.0,4.0,0.0,4.0,3.0,4.0,4.0,4.0,4.0
89.0,0.0,4158.46153846154,4187.692307692309,4117.435897435899,4157.435897435899,4164.615384615386,4269.23076923077,4162.564102564104,4229.743589743592,4278.97435897436,4184.102564102565,4191.794871794873,4195.897435897437,4188.20512820513,4190.256410256412,313.0,2047.0,2048.0,0.0,0.0,4.0,4.0,4.0,4.0,0.0,4.0,4.0,4.0,4.0,0.0,4.0,3.0,4.0,4.0,4.0,4.0
90.0,0.0,4165.641025641027,4205.641025641027,4160.512820512822,4162.051282051283,4186.666666666668,4276.410256410258,4185.641025641027,4228.71794871795,4266.666666666668,4185.641025641027,4185.128205128207,4193.846153846155,4178.46153846154,4180.512820512822,860.0,2047.0,2048.0,0.0,0.0,4.0,4.0,4.0,4.0,0.0,4.0,4.0,4.0,4.0,0.0,4.0,3.0,4.0,4.0,4.0,4.0
91.0,0.0,4178.97435897436,4218.97435897436,4261.538461538463,4164.102564102565,4228.20512820513,4278.97435897436,4224.102564102565,4221.538461538463,4263.589743589745,4186.666666666668,4173.846153846155,4193.333333333335,4173.333333333335,4175.897435897437,823.0,2047.0,2048.0,0.0,0.0,4.0,4.0,4.0,4.0,0.0,4.0,4.0,4.0,4.0,0.0,4.0,3.0,4.0,4.0,4.0,4.0
92.0,0.0,4185.128205128207,4224.615384615386,4266.666666666668,4172.307692307694,4213.333333333335,4279.487179487181,4216.410256410258,4214.871794871797,4272.307692307694,4185.641025641027,4168.20512820513,4188.20512820513,4174.3589743589755,4182.051282051283,854.0,2047.0,2048.0,0.0,0.0,4.0,4.0,4.0,4.0,0.0,4.0,4.0,4.0,4.0,0.0,4.0,3.0,4.0,4.0,4.0,4.0
93.0,0.0,4194.871794871797,4235.384615384617,4145.128205128207,4186.666666666668,4153.846153846155,4277.94871794872,4166.153846153848,4224.102564102565,4281.0256410256425,4184.102564102565,4171.794871794873,4197.435897435899,4177.94871794872,4189.743589743592,313.0,2047.0,2048.0,0.0,0.0,4.0,4.0,4.0,4.0,0.0,4.0,4.0,4.0,4.0,0.0,4.0,3.0,4.0,4.0,4.0,4.0
94.0,0.0,4202.564102564104,4244.615384615386,4075.8974358974374,4189.23076923077,4136.410256410258,4276.923076923078,4151.794871794873,4232.8205128205145,4280.000000000002,4183.589743589745,4173.846153846155,4194.871794871797,4172.307692307694,4187.179487179489,860.0,2047.0,2048.0,0.0,0.0,4.0,4.0,4.0,4.0,0.0,4.0,4.0,4.0,4.0,0.0,4.0,3.0,4.0,4.0,4.0,4.0
95.0,0.0,4197.94871794872,4245.128205128207,4185.128205128207,4186.153846153848,4192.8205128205145,4280.512820512822,4193.333333333335,4216.410256410258,4267.179487179489,4185.128205128207,4168.20512820513,4190.769230769232,4164.615384615386,4183.589743589745,823.0,2047.0,2048.0,0.0,0.0,4.0,4.0,4.0,4.0,0.0,4.0,4.0,4.0,4.0,0.0,4.0,3.0,4.0,4.0,4.0,4.0
96.0,0.0,4181.538461538463,4232.8205128205145,4298.97435897436,4183.076923076925,4235.897435897437,4280.512820512822,4230.256410256412,4207.692307692309,4258.97435897436,4186.666666666668,4155.897435897437,4192.307692307694,4155.897435897437,4174.871794871797,854.0,2047.0,2048.0,0.0,0.0,4.0,4.0,4.0,4.0,0.0,4.0,4.0,4.0,4.0,0.0,4.0,3.0,4.0,4.0,4.0,4.0
97.0,0.0,4168.20512820513,4214.871794871797,4242.564102564104,4180.000000000002,4203.589743589745,4279.487179487181,4218.46153846154,4226.153846153848,4272.307692307694,4185.641025641027,4153.333333333335,4185.641025641027,4150.769230769232,4160.000000000002,313.0,2047.0,2048.0,0.0,0.0,4.0,4.0,4.0,4.0,0.0,4.0,4.0,4.0,4.0,0.0,4.0,3.0,4.0,4.0,4.0,4.0
98.0,0.0,4178.46153846154,4217.435897435899,4136.923076923078,4185.641025641027,4158.97435897436,4278.46153846154,4176.923076923078,4226.153846153848,4281.538461538463,4184.615384615386,4168.20512820513,4193.333333333335,4163.589743589745,4168.20512820513,860.0,2047.0,2048.0,0.0,0.0,4.0,4.0,4.0,4.0,0.0,4.0,4.0,4.0,4.0,0.0,4.0,3.0,4.0,4.0,4.0,4.0
99.0,0.0,4188.71794871795,4226.666666666668,4110.769230769232,4189.23076923077,4155.897435897437,4271.794871794873,4157.435897435899,4216.410256410258,4272.8205128205145,4185.128205128207,4175.897435897437,4194.871794871797,4174.871794871797,4181.0256410256425,823.0,2047.0,2048.0,0.0,0.0,4.0,4.0,4.0,4.0,0.0,4.0,4.0,4.0,4.0,0.0,4.0,3.0,4.0,4.0,4.0,4.0
100.0,0.0,4175.897435897437,4220.000000000002,4141.0256410256425,4179.487179487181,4177.435897435899,4269.743589743592,4184.102564102565,4234.3589743589755,4277.435897435899,4185.641025641027,4169.23076923077,4192.307692307694,4165.128205128207,4173.846153846155,854.0,2047.0,2048.0,0.0,0.0,4.0,4.0,4.0,4.0,0.0,4.0,4.0,4.0,4.0,0.0,4.0,3.0,4.0,4.0,4.0,4.0
101.0,0.0,4176.923076923078,4221.538461538463,4208.20512820513,4180.000000000002,4202.564102564104,4275.897435897437,4210.769230769232,4237.435897435899,4282.564102564104,4185.641025641027,4171.282051282053,4197.435897435899,4163.589743589745,4174.3589743589755,313.0,2047.0,2048.0,0.0,0.0,4.0,4.0,4.0,4.0,0.0,4.0,4.0,4.0,4.0,0.0,4.0,3.0,4.0,4.0,4.0,4.0
102.0,0.0,4191.282051282053,4232.307692307694,4286.666666666668,4194.871794871797,4228.20512820513,4278.46153846154,4221.0256410256425,4213.333333333335,4267.692307692309,4184.615384615386,4176.410256410258,4192.307692307694,4172.307692307694,4182.051282051283,860.0,2047.0,2048.0,0.0,0.0,4.0,4.0,4.0,4.0,0.0,4.0,4.0,4.0,4.0,0.0,4.0,3.0,4.0,4.0,4.0,4.0
103.0,0.0,4185.641025641027,4225.641025641027,4284.102564102565,4198.97435897436,4222.051282051283,4273.846153846155,4223.076923076925,4215.897435897437,4260.512820512822,4185.128205128207,4169.743589743592,4194.871794871797,4166.666666666668,4175.384615384617,823.0,2047.0,2048.0,0.0,0.0,4.0,4.0,4.0,4.0,0.0,4.0,4.0,4.0,4.0,0.0,4.0,3.0,4.0,4.0,4.0,4.0
104.0,0.0,4173.333333333335,4209.23076923077,4136.923076923078,4192.307692307694,4153.846153846155,4266.153846153848,4177.435897435899,4232.307692307694,4273.846153846155,4185.641025641027,4170.256410256412,4194.3589743589755,4159.487179487181,4171.794871794873,854.0,2047.0,2048.0,0.0,0.0,4.0,4.0,4.0,4.0,0.0,4.0,4.0,4.0,4.0,0.0,4.0,3.0,4.0,4.0,4.0,4.0
105.0,0.0,4176.923076923078,4206.153846153848,4011.7948717948734,4187.179487179489,4112.307692307694,4262.564102564104,4125.128205128207,4229.743589743592,4278.97435897436,4185.128205128207,4172.307692307694,4190.769230769232,4158.46153846154,4174.3589743589755,313.0,2047.0,2048.0,0.0,0.0,4.0,4.0,4.0,4.0,0.0,4.0,4.0,4.0,4.0,0.0,4.0,3.0,4.0,4.0,4.0,4.0
106.0,0.0,4181.538461538463,4204.615384615386,4127.692307692309,4184.615384615386,4178.46153846154,4268.71794871795,4173.333333333335,4230.256410256412,4278.46153846154,4184.615384615386,4175.384615384617,4197.435897435899,4164.102564102565,4175.384615384617,860.0,2047.0,2048.0,0.0,0.0,4.0,4.0,4.0,4.0,0.0,4.0,4.0,4.0,4.0,0.0,4.0,3.0,4.0,4.0,4.0,4.0
107.0,0.0,4176.923076923078,4199.487179487181,4328.71794871795,4183.076923076925,4257.435897435899,4276.410256410258,4264.102564102565,4237.435897435899,4281.0256410256425,4185.128205128207,4182.564102564104,4194.3589743589755,4172.8205128205145,4177.435897435899,823.0,2047.0,2048.0,0.0,0.0,4.0,4.0,4.0,4.0,0.0,4.0,4.0,4.0,4.0,0.0,4.0,3.0,4.0,4.0,4.0,4.0
108.0,0.0,4171.282051282053,4198.97435897436,4312.8205128205145,4183.589743589745,4235.384615384617,4272.8205128205145,4247.179487179489,4221.0256410256425,4268.20512820513,4185.128205128207,4173.846153846155,4191.794871794873,4163.076923076925,4172.8205128205145,854.0,2047.0,2048.0,0.0,0.0,4.0,4.0,4.0,4.0,0.0,4.0,4.0,4.0,4.0,0.0,4.0,3.0,4.0,4.0,4.0,4.0
109.0,0.0,4172.307692307694,4200.512820512822,4122.051282051283,4183.076923076925,4153.333333333335,4264.102564102565,4159.487179487181,4206.666666666668,4260.000000000002,4185.641025641027,4160.512820512822,4188.20512820513,4148.20512820513,4163.589743589745,313.0,2047.0,2048.0,0.0,0.0,4.0,4.0,4.0,4.0,0.0,4.0,4.0,4.0,4.0,0.0,4.0,3.0,4.0,4.0,4.0,4.0
110.0,0.0,4177.435897435899,4195.897435897437,4047.692307692309,4183.076923076925,4136.410256410258,4260.512820512822,4134.871794871797,4222.051282051283,4271.794871794873,4185.641025641027,4166.666666666668,4187.179487179489,4150.256410256412,4163.589743589745,860.0,2047.0,2048.0,0.0,0.0,4.0,4.0,4.0,4.0,0.0,4.0,4.0,4.0,4.0,0.0,4.0,3.0,4.0,4.0,4.0,4.0
111.0,0.0,4177.94871794872,4189.743589743592,4164.615384615386,4184.102564102565,4193.846153846155,4267.179487179489,4188.71794871795,4230.256410256412,4276.923076923078,4185.641025641027,4171.794871794873,4195.897435897437,4158.46153846154,4168.20512820513,823.0,2047.0,2048.0,0.0,0.0,4.0,4.0,4.0,4.0,0.0,4.0,4.0,4.0,4.0,0.0,4.0,3.0,4.0,4.0,4.0,4.0
112.0,0.0,4173.846153846155,4194.871794871797,4267.179487179489,4184.102564102565,4228.20512820513,4280.512820512822,4240.000000000002,4224.102564102565,4271.794871794873,4185.128205128207,4169.23076923077,4191.282051282053,4160.000000000002,4169.743589743592,854.0,2047.0,2048.0,0.0,0.0,4.0,4.0,4.0,4.0,0.0,4.0,4.0,4.0,4.0,0.0,4.0,3.0,4.0,4.0,4.0,4.0
113.0,0.0,4183.589743589745,4206.153846153848,4234.3589743589755,4187.692307692309,4201.0256410256425,4283.589743589745,4228.20512820513,4234.3589743589755,4278.97435897436,4185.128205128207,4182.051282051283,4200.000000000002,4168.71794871795,4184.102564102565,313.0,2047.0,2048.0,0.0,0.0,4.0,4.0,4.0,4.0,0.0,4.0,4.0,4.0,4.0,0.0,4.0,3.0,4.0,4.0,4.0,4.0
114.0,0.0,4197.435897435899,4210.256410256412,4153.333333333335,4191.282051282053,4162.564102564104,4276.410256410258,4189.743589743592,4254.3589743589755,4289.23076923077,4185.128205128207,4194.871794871797,4208.71794871795,4185.128205128207,4201.0256410256425,860.0,2047.0,2048.0,0.0,0.0,4.0,4.0,4.0,4.0,0.0,4.0,4.0,4.0,4.0,0.0,4.0,3.0,4.0,4.0,4.0,4.0
115.0,0.0,4189.23076923077,4206.666666666668,4143.076923076925,4189.743589743592,4166.666666666668,4277.94871794872,4191.282051282053,4248.71794871795,4282.051282051283,4184.615384615386,4183.076923076925,4197.94871794872,4181.538461538463,4191.794871794873,823.0,2047.0,2048.0,0.0,0.0,4.0,4.0,4.0,4.0,0.0,4.0,4.0,4.0,4.0,0.0,4.0,3.0,4.0,4.0,4.0,4.0
116.0,0.0,4182.564102564104,4201.0256410256425,4194.3589743589755,4185.128205128207,4196.923076923078,4282.051282051283,4215.897435897437,4230.769230769232,4274.3589743589755,4185.128205128207,4177.94871794872,4196.923076923078,4173.846153846155,4183.589743589745,854.0,2047.0,2048.0,0.0,0.0,4.0,4.0,4.0,4.0,0.0,4.0,4.0,4.0,4.0,0.0,4.0,3.0,4.0,4.0,4.0,4.0
117.0,0.0,4187.692307692309,4196.923076923078,4208.71794871795,4180.512820512822,4200.512820512822,4271.282051282053,4213.846153846155,4229.743589743592,4277.94871794872,4185.641025641027,4188.20512820513,4194.3589743589755,4184.615384615386,4192.307692307694,313.0,2047.0,2048.0,0.0,0.0,4.0,4.0,4.0,4.0,0.0,4.0,4.0,4.0,4.0,0.0,4.0,3.0,4.0,4.0,4.0,4.0
118.0,0.0,4187.692307692309,4199.487179487181,4181.0256410256425,4182.051282051283,4186.666666666668,4262.564102564104,4195.384615384617,4234.871794871797,4280.000000000002,4184.615384615386,4186.153846153848,4195.897435897437,4185.128205128207,4190.256410256412,860.0,2047.0,2048.0,0.0,0.0,4.0,4.0,4.0,4.0,0.0,4.0,4.0,4.0,4.0,0.0,4.0,3.0,4.0,4.0,4.0,4.0
119.0,0.0,4180.512820512822,4203.076923076925,4165.641025641027,4185.128205128207,4178.97435897436,4266.666666666668,4192.8205128205145,4231.794871794873,4277.435897435899,4184.102564102565,4175.897435897437,4196.410256410258,4166.153846153848,4174.871794871797,823.0,2047.0,2048.0,0.0,0.0,4.0,4.0,4.0,4.0,0.0,4.0,4.0,4.0,4.0,0.0,4.0,3.0,4.0,4.0,4.0,4.0
120.0,0.0,4183.589743589745,4199.487179487181,4183.076923076925,4185.641025641027,4188.20512820513,4266.153846153848,4201.538461538463,4225.641025641027,4273.846153846155,4184.615384615386,4179.487179487181,4190.769230769232,4167.692307692309,4176.410256410258,854.0,2047.0,2048.0,0.0,0.0,4.0,4.0,4.0,4.0,0.0,4.0,4.0,4.0,4.0,0.0,4.0,3.0,4.0,4.0,4.0,4.0
121.0,0.0,4192.8205128205145,4197.435897435899,4206.666666666668,4185.641025641027,4203.076923076925,4261.538461538463,4200.512820512822,4219.487179487181,4265.641025641027,4183.589743589745,4186.153846153848,4197.94871794872,4183.589743589745,4186.666666666668,313.0,2047.0,2048.0,0.0,0.0,4.0,4.0,4.0,4.0,0.0,4.0,4.0,4.0,4.0,0.0,4.0,3.0,4.0,4.0,4.0,4.0
122.0,0.0,4186.666666666668,4193.846153846155,4186.153846153848,4181.538461538463,4188.71794871795,4262.051282051283,4192.8205128205145,4217.94871794872,4263.076923076925,4182.564102564104,4181.538461538463,4195.384615384617,4184.615384615386,4181.0256410256425,860.0,2047.0,2048.0,0.0,0.0,4.0,4.0,4.0,4.0,0.0,4.0,4.0,4.0,4.0,0.0,4.0,3.0,4.0,4.0,4.0,4.0
123.0,0.0,4187.179487179489,4197.94871794872,4137.94871794872,4182.051282051283,4162.564102564104,4262.051282051283,4180.000000000002,4225.641025641027,4271.794871794873,4183.589743589745,4181.538461538463,4194.871794871797,4183.076923076925,4182.051282051283,823.0,2047.0,2048.0,0.0,0.0,4.0,4.0,4.0,4.0,0.0,4.0,4.0,4.0,4.0,0.0,4.0,3.0,4.0,4.0,4.0,4.0
124.0,0.0,4195.897435897437,4207.179487179489,4136.410256410258,4189.743589743592,4167.692307692309,4265.641025641027,4178.46153846154,4232.307692307694,4273.333333333335,4185.128205128207,4185.641025641027,4197.94871794872,4178.46153846154,4189.743589743592,854.0,2047.0,2048.0,0.0,0.0,4.0,4.0,4.0,4.0,0.0,4.0,4.0,4.0,4.0,0.0,4.0,3.0,4.0,4.0,4.0,4.0
125.0,0.0,4191.794871794873,4207.692307692309,4214.871794871797,4187.692307692309,4206.153846153848,4273.333333333335,4217.435897435899,4231.794871794873,4269.23076923077,4184.615384615386,4183.076923076925,4193.846153846155,4172.307692307694,4183.589743589745,313.0,2047.0,2048.0,0.0,0.0,4.0,4.0,4.0,4.0,0.0,4.0,4.0,4.0,4.0,0.0,4.0,3.0,4.0,4.0,4.0,4.0
126.0,0.0,4192.307692307694,4207.179487179489,4288.71794871795,4183.589743589745,4231.282051282053,4276.923076923078,4251.282051282053,4230.256410256412,4271.282051282053,4185.128205128207,4183.589743589745,4201.0256410256425,4180.000000000002,4178.97435897436,860.0,2047.0,2048.0,0.0,0.0,4.0,4.0,4.0,4.0,0.0,4.0,4.0,4.0,4.0,0.0,4.0,3.0,4.0,4.0,4.0,4.0
127.0,0.0,4203.076923076925,4215.897435897437,4231.794871794873,4196.410256410258,4193.333333333335,4275.897435897437,4218.46153846154,4229.743589743592,4275.384615384617,4186.153846153848,4193.333333333335,4202.051282051283,4196.923076923078,4190.256410256412,823.0,2047.0,2048.0,0.0,0.0,4.0,4.0,4.0,4.0,0.0,4.0,4.0,4.0,4.0,0.0,4.0,3.0,4.0,4.0,4.0,4.0
128.0,0.0,4206.666666666668,4219.487179487181,4106.666666666668,4202.564102564104,4141.538461538463,4271.794871794873,4167.179487179489,4233.333333333335,4278.97435897436,4185.128205128207,4199.487179487181,4202.564102564104,4200.000000000002,4203.589743589745,854.0,2047.0,2048.0,0.0,0.0,4.0,4.0,4.0,4.0,0.0,4.0,4.0,4.0,4.0,0.0,4.0,3.0,4.0,4.0,4.0,4.0
0.0,0.0,4197.94871794872,4207.692307692309,4099.487179487181,4187.692307692309,4156.410256410258,4264.615384615386,4175.897435897437,4231.794871794873,4276.923076923078,4184.615384615386,4192.307692307694,4203.076923076925,4185.128205128207,4195.897435897437,683.0,2047.0,2048.0,0.0,0.0,4.0,4.0,4.0,4.0,0.0,4.0,4.0,4.0,4.0,0.0,4.0,3.0,4.0,4.0,4.0,4.0
1.0,0.0,4187.692307692309,4195.897435897437,4222.051282051283,4175.897435897437,4214.3589743589755,4259.487179487181,4221.538461538463,4220.512820512822,4267.179487179489,4185.641025641027,4182.564102564104,4192.307692307694,4174.871794871797,4182.051282051283,828.0,2047.0,2048.0,0.0,0.0,4.0,4.0,4.0,4.0,0.0,4.0,4.0,4.0,4.0,0.0,4.0,3.0,4.0,4.0,4.0,4.0
2.0,0.0,4190.256410256412,4203.076923076925,4293.846153846155,4187.692307692309,4231.794871794873,4266.153846153848,4232.307692307694,4210.769230769232,4261.0256410256425,4185.128205128207,4182.051282051283,4197.94871794872,4179.487179487181,4186.666666666668,805.0,2047.0,2048.0,0.0,0.0,4.0,4.0,4.0,4.0,0.0,4.0,4.0,4.0,4.0,0.0,4.0,3.0,4.0,4.0,4.0,4.0
3.0,0.0,4197.435897435899,4212.307692307694,4213.333333333335,4202.564102564104,4184.615384615386,4273.846153846155,4204.615384615386,4219.487179487181,4270.256410256412,4184.615384615386,4185.641025641027,4202.051282051283,4184.615384615386,4194.3589743589755,795.0,2047.0,2048.0,0.0,0.0,4.0,4.0,4.0,4.0,0.0,4.0,4.0,4.0,4.0,0.0,4.0,3.0,4.0,4.0,4.0,4.0
4.0,0.0,4197.435897435899,4203.076923076925,4133.333333333335,4198.97435897436,4152.8205128205145,4275.384615384617,4190.256410256412,4244.615384615386,4287.179487179489,4185.641025641027,4194.3589743589755,4200.512820512822,4190.769230769232,4195.384615384617,0.0,2047.0,2048.0,0.0,0.0,4.0,4.0,4.0,4.0,0.0,4.0,4.0,4.0,4.0,0.0,4.0,3.0,4.0,4.0,4.0,4.0
5.0,0.0,4199.487179487181,4197.94871794872,4170.256410256412,4195.897435897437,4176.410256410258,4281.538461538463,4204.615384615386,4249.743589743592,4290.769230769232,4186.153846153848,4204.102564102565,4207.692307692309,4202.051282051283,4206.153846153848,782.0,2047.0,2048.0,0.0,0.0,4.0,4.0,4.0,4.0,0.0,4.0,4.0,4.0,4.0,0.0,4.0,3.0,4.0,4.0,4.0,4.0
6.0,0.0,4206.666666666668,4212.8205128205145,4221.538461538463,4208.20512820513,4197.435897435899,4281.538461538463,4209.743589743592,4229.23076923077,4277.435897435899,4184.102564102565,4204.102564102565,4205.641025641027,4202.564102564104,4214.871794871797,802.0,2047.0,2048.0,0.0,0.0,4.0,4.0,4.0,4.0,0.0,4.0,4.0,4.0,4.0,0.0,4.0,3.0,4.0,4.0,4.0,4.0
7.0,0.0,4211.794871794873,4215.384615384617,4212.307692307694,4212.307692307694,4186.153846153848,4270.256410256412,4199.487179487181,4228.71794871795,4273.846153846155,4184.102564102565,4202.564102564104,4207.179487179489,4197.435897435899,4210.769230769232,809.0,2047.0,2048.0,0.0,0.0,4.0,4.0,4.0,4.0,0.0,4.0,4.0,4.0,4.0,0.0,4.0,3.0,4.0,4.0,4.0,4.0
8.0,0.0,4205.128205128207,4201.0256410256425,4191.794871794873,4200.512820512822,4181.538461538463,4268.71794871795,4200.512820512822,4235.897435897437,4281.0256410256425,4185.128205128207,4201.0256410256425,4205.641025641027,4196.923076923078,4203.589743589745,608.0,2047.0,2048.0,0.0,0.0,4.0,4.0,4.0,4.0,0.0,4.0,4.0,4.0,4.0,0.0,4.0,3.0,4.0,4.0,4.0,4.0
9.0,0.0,4196.923076923078,4197.94871794872,4230.769230769232,4197.435897435899,4208.71794871795,4273.333333333335,4217.94871794872,4218.97435897436,4275.384615384617,4185.128205128207,4190.769230769232,4203.589743589745,4194.3589743589755,4196.923076923078,0.0,2047.0,2048.0,0.0,0.0,4.0,4.0,4.0,4.0,0.0,4.0,4.0,4.0,4.0,0.0,4.0,3.0,4.0,4.0,4.0,4.0
10.0,0.0,4194.3589743589755,4198.97435897436,4255.384615384617,4202.051282051283,4207.179487179489,4272.307692307694,4223.589743589745,4216.923076923078,4271.282051282053,4185.641025641027,4183.076923076925,4206.666666666668,4185.641025641027,4192.307692307694,860.0,2047.0,2048.0,0.0,0.0,4.0,4.0,4.0,4.0,0.0,4.0,4.0,4.0,4.0,0.0,4.0,3.0,4.0,4.0,4.0,4.0
11.0,0.0,4195.384615384617,4195.384615384617,4150.769230769232,4199.487179487181,4150.769230769232,4271.282051282053,4185.641025641027,4237.435897435899,4278.46153846154,4186.153846153848,4185.128205128207,4199.487179487181,4178.97435897436,4191.794871794873,823.0,2047.0,2048.0,0.0,0.0,4.0,4.0,4.0,4.0,0.0,4.0,4.0,4.0,4.0,0.0,4.0,3.0,4.0,4.0,4.0,4.0
12.0,0.0,4208.20512820513,4201.0256410256425,4088.2051282051298,4202.564102564104,4137.435897435899,4269.743589743592,4158.46153846154,4236.410256410258,4280.512820512822,4185.128205128207,4196.923076923078,4207.179487179489,4189.743589743592,4207.179487179489,854.0,2047.0,2048.0,0.0,0.0,4.0,4.0,4.0,4.0,0.0,4.0,4.0,4.0,4.0,0.0,4.0,3.0,4.0,4.0,4.0,4.0
13.0,0.0,4215.384615384617,4207.179487179489,4221.538461538463,4209.23076923077,4203.589743589745,4272.307692307694,4211.282051282053,4231.282051282053,4279.487179487181,4184.615384615386,4209.743589743592,4210.769230769232,4206.153846153848,4218.97435897436,308.0,2047.0,2048.0,0.0,0.0,4.0,4.0,4.0,4.0,0.0,4.0,4.0,4.0,4.0,0.0,4.0,3.0,4.0,4.0,4.0,4.0
14.0,0.0,4204.102564102565,4201.0256410256425,4345.128205128207,4206.666666666668,4249.743589743592,4276.410256410258,4265.641025641027,4234.3589743589755,4280.000000000002,4184.615384615386,4200.000000000002,4197.94871794872,4194.871794871797,4202.564102564104,860.0,2047.0,2048.0,0.0,0.0,4.0,4.0,4.0,4.0,0.0,4.0,4.0,4.0,4.0,0.0,4.0,3.0,4.0,4.0,4.0,4.0
15.0,0.0,4190.769230769232,4195.384615384617,4263.589743589745,4201.538461538463,4205.128205128207,4270.769230769232,4229.743589743592,4232.8205128205145,4278.46153846154,4185.128205128207,4182.051282051283,4200.512820512822,4172.8205128205145,4188.20512820513,823.0,2047.0,2048.0,0.0,0.0,4.0,4.0,4.0,4.0,0.0,4.0,4.0,4.0,4.0,0.0,4.0,3.0,4.0,4.0,4.0,4.0
16.0,0.0,4196.410256410258,4196.410256410258,4114.871794871797,4202.051282051283,4141.0256410256425,4261.0256410256425,4172.307692307694,4242.051282051283,4281.0256410256425,4185.641025641027,4197.435897435899,4206.666666666668,4190.769230769232,4206.153846153848,0.0,2047.0,2048.0,0.0,0.0,4.0,4.0,4.0,4.0,0.0,4.0,4.0,4.0,4.0,0.0,4.0,3.0,4.0,4.0,4.0,4.0
17.0,0.0,4208.71794871795,4193.333333333335,4118.97435897436,4201.0256410256425,4155.384615384617,4264.102564102565,4181.0256410256425,4248.20512820513,4284.615384615386,4184.615384615386,4222.051282051283,4210.256410256412,4219.487179487181,4222.564102564104,0.0,2047.0,2048.0,0.0,0.0,4.0,4.0,4.0,4.0,0.0,4.0,4.0,4.0,4.0,0.0,4.0,3.0,4.0,4.0,4.0,4.0
18.0,0.0,4203.589743589745,4187.179487179489,4234.3589743589755,4196.410256410258,4210.769230769232,4271.282051282053,4223.589743589745,4236.923076923078,4279.487179487181,4183.589743589745,4219.487179487181,4205.128205128207,4216.410256410258,4215.384615384617,0.0,2047.0,2048.0,0.0,0.0,4.0,4.0,4.0,4.0,0.0,4.0,4.0,4.0,4.0,0.0,4.0,3.0,4.0,4.0,4.0,4.0
19.0,0.0,4192.8205128205145,4181.538461538463,4276.410256410258,4192.307692307694,4222.051282051283,4276.923076923078,4240.000000000002,4236.410256410258,4278.46153846154,4184.615384615386,4208.20512820513,4202.564102564104,4202.051282051283,4207.179487179489,0.0,2047.0,2048.0,0.0,0.0,4.0,4.0,4.0,4.0,0.0,4.0,4.0,4.0,4.0,0.0,4.0,3.0,4.0,4.0,4.0,4.0
20.0,0.0,4193.846153846155,4177.435897435899,4209.23076923077,4195.384615384617,4188.71794871795,4282.051282051283,4221.0256410256425,4251.282051282053,4286.666666666668,4185.641025641027,4208.20512820513,4211.794871794873,4201.0256410256425,4207.179487179489,0.0,2047.0,2048.0,0.0,0.0,4.0,4.0,4.0,4.0,0.0,4.0,4.0,4.0,4.0,0.0,4.0,3.0,4.0,4.0,4.0,4.0
21.0,0.0,4191.282051282053,4175.897435897437,4148.20512820513,4196.410256410258,4164.615384615386,4275.897435897437,4192.307692307694,4252.8205128205145,4284.615384615386,4185.128205128207,4209.23076923077,4206.153846153848,4203.076923076925,4205.128205128207,0.0,2047.0,2048.0,0.0,0.0,4.0,4.0,4.0,4.0,0.0,4.0,4.0,4.0,4.0,0.0,4.0,3.0,4.0,4.0,4.0,4.0
22.0,0.0,4184.102564102565,4181.538461538463,4175.897435897437,4189.743589743592,4182.051282051283,4273.333333333335,4197.94871794872,4235.384615384617,4275.897435897437,4185.641025641027,4203.076923076925,4204.615384615386,4195.897435897437,4200.512820512822,0.0,2047.0,2048.0,0.0,0.0,4.0,4.0,4.0,4.0,0.0,4.0,4.0,4.0,4.0,0.0,4.0,3.0,4.0,4.0,4.0,4.0
23.0,0.0,4186.666666666668,4186.666666666668,4219.487179487181,4193.333333333335,4204.102564102565,4278.97435897436,4223.076923076925,4228.71794871795,4275.897435897437,4185.641025641027,4200.512820512822,4207.692307692309,4196.410256410258,4198.97435897436,0.0,2047.0,2048.0,0.0,0.0,4.0,4.0,4.0,4.0,0.0,4.0,4.0,4.0,4.0,0.0,4.0,3.0,4.0,4.0,4.0,4.0
24.0,0.0,4187.179487179489,4179.487179487181,4212.8205128205145,4200.000000000002,4195.384615384617,4281.0256410256425,4224.102564102565,4240.512820512822,4279.487179487181,4184.615384615386,4203.076923076925,4202.564102564104,4205.641025641027,4199.487179487181,0.0,2047.0,2048.0,0.0,0.0,4.0,4.0,4.0,4.0,0.0,4.0,4.0,4.0,4.0,0.0,4.0,3.0,4.0,4.0,4.0,4.0
25.0,0.0,4185.641025641027,4168.20512820513,4187.692307692309,4191.282051282053,4180.000000000002,4281.0256410256425,4213.846153846155,4249.23076923077,4280.000000000002,4185.128205128207,4201.538461538463,4207.179487179489,4198.46153846154,4196.410256410258,0.0,2047.0,2048.0,0.0,0.0,4.0,4.0,4.0,4.0,0.0,4.0,4.0,4.0,4.0,0.0,4.0,3.0,4.0,4.0,4.0,4.0
26.0,0.0,4188.71794871795,4172.307692307694,4167.692307692309,4184.102564102565,4173.333333333335,4278.97435897436,4211.794871794873,4244.615384615386,4278.46153846154,4184.102564102565,4195.897435897437,4201.538461538463,4184.102564102565,4192.307692307694,0.0,2047.0,2048.0,0.0,0.0,4.0,4.0,4.0,4.0,0.0,4.0,4.0,4.0,4.0,0.0,4.0,3.0,4.0,4.0,4.0,4.0
27.0,0.0,4194.3589743589755,4189.23076923077,4176.923076923078,4197.435897435899,4180.512820512822,4276.410256410258,4209.23076923077,4238.97435897436,4277.94871794872,4183.589743589745,4197.94871794872,4201.0256410256425,4192.307692307694,4199.487179487181,0.0,2047.0,2048.0,0.0,0.0,4.0,4.0,4.0,4.0,0.0,4.0,4.0,4.0,4.0,0.0,4.0,3.0,4.0,4.0,4.0,4.0
