COUNTER,INTERPOLATED,AF3,F7,F3,FC5,T7,P7,O1,O2,P8,T8,FC6,F4,F8,AF4,RAW_CQ,GYROX,GYROY,MARKER,SYNC,CQ_AF3,CQ_F7,CQ_F3,CQ_FC5,CQ_T7,CQ_P7,CQ_O1,CQ_O2,CQ_P8,CQ_T8,CQ_FC6,CQ_F4,CQ_F8,CQ_AF4,CQ_CMS,CQ_DRL
63.0,0.0,4172.307692307694,4174.3589743589755,4210.256410256412,4166.666666666668,4210.769230769232,4188.71794871795,4202.051282051283,4184.102564102565,4177.435897435899,4185.641025641027,4172.8205128205145,4192.8205128205145,4178.97435897436,4166.153846153848,0.0,2047.0,2048.0,0.0,0.0,0.0,0.0,0.0,0.0,0.0,0.0,0.0,0.0,0.0,0.0,0.0,0.0,0.0,0.0,0.0,0.0
64.0,0.0,4181.538461538463,4173.333333333335,4212.8205128205145,4169.23076923077,4198.97435897436,4185.641025641027,4194.3589743589755,4185.128205128207,4184.615384615386,4186.666666666668,4190.769230769232,4196.410256410258,4200.000000000002,4176.923076923078,686.0,2047.0,2048.0,0.0,0.0,0.0,0.0,4.0,0.0,0.0,0.0,0.0,0.0,0.0,0.0,0.0,0.0,0.0,0.0,4.0,4.0
65.0,0.0,4186.153846153848,4178.97435897436,4165.641025641027,4169.23076923077,4175.897435897437,4184.615384615386,4181.0256410256425,4197.94871794872,4190.769230769232,4187.179487179489,4201.538461538463,4198.97435897436,4215.897435897437,4190.769230769232,829.0,2047.0,2048.0,0.0,0.0,0.0,0.0,4.0,4.0,0.0,0.0,0.0,0.0,0.0,0.0,0.0,0.0,0.0,0.0,4.0,4.0
66.0,0.0,4176.923076923078,4174.3589743589755,4155.897435897437,4166.153846153848,4186.153846153848,4178.97435897436,4181.538461538463,4195.897435897437,4180.000000000002,4186.666666666668,4185.128205128207,4198.97435897436,4195.897435897437,4175.897435897437,804.0,2047.0,2048.0,0.0,0.0,4.0,0.0,4.0,4.0,0.0,0.0,0.0,0.0,0.0,0.0,0.0,0.0,0.0,0.0,4.0,4.0
67.0,0.0,4169.743589743592,4169.23076923077,4185.128205128207,4160.512820512822,4205.128205128207,4168.71794871795,4187.692307692309,4175.384615384617,4169.743589743592,4184.615384615386,4169.743589743592,4188.20512820513,4184.102564102565,4158.97435897436,796.0,2047.0,2048.0,0.0,0.0,4.0,4.0,4.0,4.0,0.0,0.0,0.0,0.0,0.0,0.0,0.0,0.0,0.0,0.0,4.0,4.0
68.0,0.0,4166.666666666668,4170.256410256412,4193.846153846155,4159.487179487181,4199.487179487181,4168.20512820513,4184.615384615386,4165.128205128207,4169.743589743592,4184.102564102565,4171.794871794873,4191.794871794873,4187.179487179489,4164.615384615386,0.0,2047.0,2048.0,0.0,0.0,4.0,4.0,4.0,4.0,0.0,0.0,0.0,0.0,0.0,0.0,0.0,0.0,0.0,0.0,4.0,4.0
69.0,0.0,4170.256410256412,4168.71794871795,4141.538461538463,4160.512820512822,4170.256410256412,4174.871794871797,4169.23076923077,4175.897435897437,4171.282051282053,4187.179487179489,4182.051282051283,4194.3589743589755,4188.20512820513,4172.8205128205145,782.0,2047.0,2048.0,0.0,0.0,4.0,4.0,4.0,4.0,0.0,4.0,0.0,0.0,0.0,0.0,0.0,0.0,0.0,0.0,4.0,4.0
70.0,0.0,4177.94871794872,4168.71794871795,4102.564102564104,4160.000000000002,4163.076923076925,4175.384615384617,4165.128205128207,4187.692307692309,4172.8205128205145,4188.20512820513,4188.20512820513,4190.769230769232,4190.256410256412,4172.307692307694,803.0,2047.0,2048.0,0.0,0.0,4.0,4.0,4.0,4.0,0.0,4.0,4.0,0.0,0.0,0.0,0.0,0.0,0.0,0.0,4.0,4.0
71.0,0.0,4184.102564102565,4177.435897435899,4177.94871794872,4162.564102564104,4200.000000000002,4172.8205128205145,4187.692307692309,4185.641025641027,4171.282051282053,4186.666666666668,4187.692307692309,4197.94871794872,4190.256410256412,4174.3589743589755,814.0,2047.0,2048.0,0.0,0.0,4.0,4.0,4.0,4.0,0.0,4.0,4.0,4.0,0.0,0.0,0.0,0.0,0.0,0.0,4.0,4.0
72.0,0.0,4186.153846153848,4189.743589743592,4268.20512820513,4171.794871794873,4225.641025641027,4175.384615384617,4205.641025641027,4173.333333333335,4165.128205128207,4184.102564102565,4183.589743589745,4193.333333333335,4188.20512820513,4179.487179487181,649.0,2047.0,2048.0,0.0,0.0,4.0,4.0,4.0,4.0,0.0,4.0,4.0,4.0,4.0,0.0,0.0,0.0,0.0,0.0,4.0,4.0
73.0,0.0,4185.128205128207,4185.641025641027,4235.384615384617,4175.384615384617,4203.076923076925,4183.076923076925,4197.435897435899,4177.435897435899,4173.846153846155,4185.128205128207,4184.102564102565,4194.3589743589755,4190.769230769232,4181.538461538463,0.0,2047.0,2048.0,0.0,0.0,4.0,4.0,4.0,4.0,0.0,4.0,4.0,4.0,4.0,0.0,0.0,0.0,0.0,0.0,4.0,4.0
74.0,0.0,4177.94871794872,4169.23076923077,4123.589743589745,4167.692307692309,4160.512820512822,4176.923076923078,4169.743589743592,4191.282051282053,4186.666666666668,4186.666666666668,4187.692307692309,4194.3589743589755,4194.3589743589755,4180.000000000002,863.0,2047.0,2048.0,0.0,0.0,4.0,4.0,4.0,4.0,0.0,4.0,4.0,4.0,4.0,0.0,0.0,0.0,4.0,0.0,4.0,4.0
75.0,0.0,4175.897435897437,4169.743589743592,4097.94871794872,4166.666666666668,4157.94871794872,4165.641025641027,4152.307692307694,4178.97435897436,4169.743589743592,4186.153846153848,4179.487179487181,4184.102564102565,4184.615384615386,4171.794871794873,820.0,2047.0,2048.0,0.0,0.0,4.0,4.0,4.0,4.0,0.0,4.0,4.0,4.0,4.0,0.0,0.0,0.0,4.0,4.0,4.0,4.0
76.0,0.0,4178.97435897436,4182.051282051283,4188.20512820513,4175.384615384617,4200.000000000002,4175.897435897437,4179.487179487181,4162.051282051283,4149.23076923077,4185.128205128207,4167.179487179489,4187.692307692309,4169.23076923077,4161.538461538463,851.0,2047.0,2048.0,0.0,0.0,4.0,4.0,4.0,4.0,0.0,4.0,4.0,4.0,4.0,0.0,4.0,0.0,4.0,4.0,4.0,4.0
77.0,0.0,4173.846153846155,4181.0256410256425,4246.153846153848,4174.871794871797,4219.487179487181,4187.179487179489,4209.23076923077,4168.20512820513,4155.897435897437,4184.102564102565,4168.71794871795,4185.128205128207,4171.282051282053,4158.97435897436,352.0,2047.0,2048.0,0.0,0.0,4.0,4.0,4.0,4.0,0.0,4.0,4.0,4.0,4.0,0.0,4.0,4.0,4.0,4.0,4.0,4.0
78.0,0.0,4177.94871794872,4181.0256410256425,4205.641025641027,4171.794871794873,4195.384615384617,4182.564102564104,4184.615384615386,4171.282051282053,4163.076923076925,4185.128205128207,4174.871794871797,4188.71794871795,4181.0256410256425,4168.20512820513,863.0,2047.0,2048.0,0.0,0.0,4.0,4.0,4.0,4.0,0.0,4.0,4.0,4.0,4.0,0.0,4.0,4.0,4.0,4.0,4.0,4.0
79.0,0.0,4188.71794871795,4190.769230769232,4121.0256410256425,4176.410256410258,4156.410256410258,4183.076923076925,4149.23076923077,4176.923076923078,4167.692307692309,4190.256410256412,4180.000000000002,4197.94871794872,4183.589743589745,4176.923076923078,820.0,2047.0,2048.0,0.0,0.0,4.0,4.0,4.0,4.0,0.0,4.0,4.0,4.0,4.0,0.0,4.0,4.0,4.0,4.0,4.0,4.0
80.0,0.0,4188.71794871795,4191.794871794873,4109.23076923077,4178.46153846154,4156.410256410258,4189.743589743592,4165.641025641027,4194.3589743589755,4184.102564102565,4188.20512820513,4189.743589743592,4195.897435897437,4185.128205128207,4178.46153846154,851.0,2047.0,2048.0,0.0,0.0,4.0,4.0,4.0,4.0,0.0,4.0,4.0,4.0,4.0,0.0,4.0,4.0,4.0,4.0,4.0,4.0
81.0,0.0,4187.692307692309,4191.282051282053,4219.487179487181,4178.46153846154,4207.692307692309,4193.333333333335,4212.8205128205145,4194.3589743589755,4184.615384615386,4184.615384615386,4192.307692307694,4199.487179487181,4188.20512820513,4176.923076923078,352.0,2047.0,2048.0,0.0,0.0,4.0,4.0,4.0,4.0,0.0,4.0,4.0,4.0,4.0,0.0,4.0,4.0,4.0,4.0,4.0,4.0
82.0,0.0,4182.564102564104,4185.128205128207,4293.333333333335,4177.94871794872,4230.769230769232,4193.846153846155,4234.3589743589755,4184.102564102565,4171.282051282053,4191.282051282053,4181.0256410256425,4190.769230769232,4185.641025641027,4169.743589743592,863.0,2047.0,2048.0,0.0,0.0,4.0,4.0,4.0,4.0,0.0,4.0,4.0,4.0,4.0,0.0,4.0,4.0,4.0,4.0,4.0,4.0
83.0,0.0,4176.923076923078,4168.20512820513,4194.3589743589755,4172.307692307694,4184.615384615386,4189.23076923077,4197.94871794872,4186.666666666668,4175.897435897437,4192.307692307694,4176.923076923078,4190.769230769232,4182.564102564104,4165.641025641027,820.0,2047.0,2048.0,0.0,0.0,4.0,4.0,4.0,4.0,0.0,4.0,4.0,4.0,4.0,0.0,4.0,4.0,4.0,4.0,4.0,4.0
84.0,0.0,4180.512820512822,4161.0256410256425,4060.0000000000014,4167.692307692309,4134.871794871797,4185.641025641027,4149.23076923077,4190.256410256412,4185.128205128207,4183.076923076925,4186.666666666668,4198.97435897436,4186.666666666668,4169.23076923077,851.0,2047.0,2048.0,0.0,0.0,4.0,4.0,4.0,4.0,0.0,4.0,4.0,4.0,4.0,0.0,4.0,4.0,4.0,4.0,4.0,4.0
85.0,0.0,4178.97435897436,4164.615384615386,4104.615384615386,4170.769230769232,4162.051282051283,4187.692307692309,4166.666666666668,4186.666666666668,4176.923076923078,4182.051282051283,4185.128205128207,4192.8205128205145,4186.153846153848,4167.179487179489,352.0,2047.0,2048.0,0.0,0.0,4.0,4.0,4.0,4.0,0.0,4.0,4.0,4.0,4.0,0.0,4.0,4.0,4.0,4.0,4.0,4.0
86.0,0.0,4171.794871794873,4161.538461538463,4251.282051282053,4171.282051282053,4226.666666666668,4182.051282051283,4214.3589743589755,4178.46153846154,4165.641025641027,4187.692307692309,4171.794871794873,4193.846153846155,4181.0256410256425,4161.0256410256425,863.0,2047.0,2048.0,0.0,0.0,4.0,4.0,4.0,4.0,0.0,4.0,4.0,4.0,4.0,0.0,4.0,4.0,4.0,4.0,4.0,4.0
87.0,0.0,4170.256410256412,4153.333333333335,4266.666666666668,4165.641025641027,4221.538461538463,4175.384615384617,4212.8205128205145,4173.846153846155,4166.153846153848,4185.128205128207,4171.282051282053,4191.794871794873,4180.000000000002,4162.564102564104,820.0,2047.0,2048.0,0.0,0.0,4.0,4.0,4.0,4.0,0.0,4.0,4.0,4.0,4.0,0.0,4.0,4.0,4.0,4.0,4.0,4.0
88.0,0.0,4177.94871794872,4154.871794871797,4158.97435897436,4169.743589743592,4168.71794871795,4181.538461538463,4176.923076923078,4186.666666666668,4174.3589743589755,4185.128205128207,4185.128205128207,4194.871794871797,4183.589743589745,4170.769230769232,851.0,2047.0,2048.0,0.0,0.0,4.0,4.0,4.0,4.0,0.0,4.0,4.0,4.0,4.0,0.0,4.0,4.0,4.0,4.0,4.0,4.0
89.0,0.0,4181.0256410256425,4156.923076923078,4107.692307692309,4175.384615384617,4157.435897435899,4187.692307692309,4165.641025641027,4196.410256410258,4184.615384615386,4188.20512820513,4194.871794871797,4200.512820512822,4189.743589743592,4170.256410256412,352.0,2047.0,2048.0,0.0,0.0,4.0,4.0,4.0,4.0,0.0,4.0,4.0,4.0,4.0,0.0,4.0,4.0,4.0,4.0,4.0,4.0
90.0,0.0,4175.384615384617,4155.384615384617,4166.666666666668,4170.256410256412,4188.71794871795,4180.000000000002,4185.128205128207,4185.128205128207,4182.564102564104,4186.153846153848,4193.333333333335,4192.307692307694,4191.794871794873,4164.615384615386,863.0,2047.0,2048.0,0.0,0.0,4.0,4.0,4.0,4.0,0.0,4.0,4.0,4.0,4.0,0.0,4.0,4.0,4.0,4.0,4.0,4.0
91.0,0.0,4177.94871794872,4158.97435897436,4235.897435897437,4168.20512820513,4215.384615384617,4172.8205128205145,4203.076923076925,4180.512820512822,4174.3589743589755,4185.128205128207,4188.71794871795,4194.871794871797,4185.641025641027,4170.256410256412,820.0,2047.0,2048.0,0.0,0.0,4.0,4.0,4.0,4.0,0.0,4.0,4.0,4.0,4.0,0.0,4.0,4.0,4.0,4.0,4.0,4.0
92.0,0.0,4177.435897435899,4157.435897435899,4231.282051282053,4175.384615384617,4207.179487179489,4177.435897435899,4203.589743589745,4188.20512820513,4174.871794871797,4186.153846153848,4191.282051282053,4194.871794871797,4185.128205128207,4170.769230769232,851.0,2047.0,2048.0,0.0,0.0,4.0,4.0,4.0,4.0,0.0,4.0,4.0,4.0,4.0,0.0,4.0,4.0,4.0,4.0,4.0,4.0
93.0,0.0,4174.871794871797,4149.743589743592,4174.871794871797,4179.487179487181,4179.487179487181,4183.076923076925,4185.128205128207,4184.102564102565,4173.333333333335,4186.153846153848,4193.846153846155,4194.3589743589755,4194.871794871797,4167.692307692309,352.0,2047.0,2048.0,0.0,0.0,4.0,4.0,4.0,4.0,0.0,4.0,4.0,4.0,4.0,0.0,4.0,4.0,4.0,4.0,4.0,4.0
94.0,0.0,4185.641025641027,4152.307692307694,4118.46153846154,4181.0256410256425,4157.94871794872,4184.102564102565,4163.589743589745,4184.615384615386,4172.8205128205145,4186.153846153848,4196.410256410258,4202.564102564104,4199.487179487181,4180.000000000002,863.0,2047.0,2048.0,0.0,0.0,4.0,4.0,4.0,4.0,0.0,4.0,4.0,4.0,4.0,0.0,4.0,4.0,4.0,4.0,4.0,4.0
95.0,0.0,4193.333333333335,4163.589743589745,4122.051282051283,4180.512820512822,4166.153846153848,4186.153846153848,4173.846153846155,4203.589743589745,4184.615384615386,4185.641025641027,4205.128205128207,4202.051282051283,4201.538461538463,4189.23076923077,820.0,2047.0,2048.0,0.0,0.0,4.0,4.0,4.0,4.0,0.0,4.0,4.0,4.0,4.0,0.0,4.0,4.0,4.0,4.0,4.0,4.0
96.0,0.0,4189.23076923077,4165.641025641027,4221.0256410256425,4180.000000000002,4208.20512820513,4189.23076923077,4211.794871794873,4204.102564102565,4185.641025641027,4185.641025641027,4204.102564102565,4204.102564102565,4197.94871794872,4178.97435897436,851.0,2047.0,2048.0,0.0,0.0,4.0,4.0,4.0,4.0,0.0,4.0,4.0,4.0,4.0,0.0,4.0,4.0,4.0,4.0,4.0,4.0
97.0,0.0,4181.0256410256425,4154.3589743589755,4283.589743589745,4177.94871794872,4225.641025641027,4187.692307692309,4225.128205128207,4184.615384615386,4172.307692307694,4186.153846153848,4187.179487179489,4195.897435897437,4183.076923076925,4167.179487179489,352.0,2047.0,2048.0,0.0,0.0,4.0,4.0,4.0,4.0,0.0,4.0,4.0,4.0,4.0,0.0,4.0,4.0,4.0,4.0,4.0,4.0
98.0,0.0,4173.333333333335,4150.769230769232,4203.076923076925,4175.384615384617,4189.743589743592,4180.512820512822,4192.307692307694,4178.97435897436,4166.153846153848,4186.153846153848,4176.410256410258,4190.256410256412,4174.3589743589755,4161.0256410256425,863.0,2047.0,2048.0,0.0,0.0,4.0,4.0,4.0,4.0,0.0,4.0,4.0,4.0,4.0,0.0,4.0,4.0,4.0,4.0,4.0,4.0
99.0,0.0,4177.435897435899,4164.615384615386,4110.256410256412,4181.0256410256425,4154.3589743589755,4177.435897435899,4155.384615384617,4184.102564102565,4170.769230769232,4186.153846153848,4184.615384615386,4200.512820512822,4182.564102564104,4163.589743589745,820.0,2047.0,2048.0,0.0,0.0,4.0,4.0,4.0,4.0,0.0,4.0,4.0,4.0,4.0,0.0,4.0,4.0,4.0,4.0,4.0,4.0
100.0,0.0,4184.615384615386,4168.20512820513,4137.435897435899,4185.641025641027,4168.20512820513,4183.076923076925,4166.153846153848,4184.615384615386,4174.871794871797,4186.666666666668,4193.333333333335,4199.487179487181,4188.20512820513,4173.846153846155,851.0,2047.0,2048.0,0.0,0.0,4.0,4.0,4.0,4.0,0.0,4.0,4.0,4.0,4.0,0.0,4.0,4.0,4.0,4.0,4.0,4.0
101.0,0.0,4177.435897435899,4156.410256410258,4223.076923076925,4181.0256410256425,4210.256410256412,4188.71794871795,4209.743589743592,4190.256410256412,4175.897435897437,4186.153846153848,4188.71794871795,4200.512820512822,4182.051282051283,4176.410256410258,352.0,2047.0,2048.0,0.0,0.0,4.0,4.0,4.0,4.0,0.0,4.0,4.0,4.0,4.0,0.0,4.0,4.0,4.0,4.0,4.0,4.0
102.0,0.0,4171.282051282053,4158.46153846154,4240.000000000002,4180.512820512822,4212.307692307694,4185.128205128207,4217.435897435899,4202.051282051283,4175.384615384617,4185.128205128207,4182.564102564104,4200.512820512822,4183.076923076925,4168.71794871795,863.0,2047.0,2048.0,0.0,0.0,4.0,4.0,4.0,4.0,0.0,4.0,4.0,4.0,4.0,0.0,4.0,4.0,4.0,4.0,4.0,4.0
103.0,0.0,4184.102564102565,4171.794871794873,4179.487179487181,4186.666666666668,4178.97435897436,4184.102564102565,4181.538461538463,4201.0256410256425,4175.384615384617,4185.641025641027,4189.743589743592,4197.94871794872,4187.692307692309,4167.692307692309,820.0,2047.0,2048.0,0.0,0.0,4.0,4.0,4.0,4.0,0.0,4.0,4.0,4.0,4.0,0.0,4.0,4.0,4.0,4.0,4.0,4.0
104.0,0.0,4189.743589743592,4172.8205128205145,4121.0256410256425,4186.153846153848,4158.97435897436,4188.20512820513,4158.97435897436,4192.307692307694,4180.000000000002,4186.153846153848,4199.487179487181,4204.102564102565,4185.641025641027,4175.384615384617,851.0,2047.0,2048.0,0.0,0.0,4.0,4.0,4.0,4.0,0.0,4.0,4.0,4.0,4.0,0.0,4.0,4.0,4.0,4.0,4.0,4.0
105.0,0.0,4186.153846153848,4170.769230769232,4140.000000000002,4188.20512820513,4173.333333333335,4184.615384615386,4169.743589743592,4189.743589743592,4184.102564102565,4185.128205128207,4203.076923076925,4200.000000000002,4194.871794871797,4185.128205128207,352.0,2047.0,2048.0,0.0,0.0,4.0,4.0,4.0,4.0,0.0,4.0,4.0,4.0,4.0,0.0,4.0,4.0,4.0,4.0,4.0,4.0
106.0,0.0,4194.3589743589755,4175.384615384617,4241.538461538463,4197.435897435899,4219.487179487181,4183.589743589745,4202.051282051283,4185.641025641027,4180.512820512822,4185.641025641027,4200.512820512822,4202.051282051283,4199.487179487181,4188.71794871795,863.0,2047.0,2048.0,0.0,0.0,4.0,4.0,4.0,4.0,0.0,4.0,4.0,4.0,4.0,0.0,4.0,4.0,4.0,4.0,4.0,4.0
107.0,0.0,4188.20512820513,4170.256410256412,4289.743589743592,4190.769230769232,4231.794871794873,4192.8205128205145,4223.589743589745,4171.794871794873,4170.256410256412,4186.666666666668,4186.666666666668,4198.46153846154,4177.435897435899,4173.846153846155,820.0,2047.0,2048.0,0.0,0.0,4.0,4.0,4.0,4.0,0.0,4.0,4.0,4.0,4.0,0.0,4.0,4.0,4.0,4.0,4.0,4.0
108.0,0.0,4173.846153846155,4160.512820512822,4186.153846153848,4181.0256410256425,4177.94871794872,4191.794871794873,4186.666666666668,4165.641025641027,4165.641025641027,4187.179487179489,4176.923076923078,4189.743589743592,4168.20512820513,4164.615384615386,851.0,2047.0,2048.0,0.0,0.0,4.0,4.0,4.0,4.0,0.0,4.0,4.0,4.0,4.0,0.0,4.0,4.0,4.0,4.0,4.0,4.0
109.0,0.0,4181.538461538463,4162.051282051283,4065.641025641027,4192.307692307694,4133.333333333335,4184.615384615386,4136.923076923078,4176.410256410258,4175.897435897437,4186.153846153848,4186.666666666668,4199.487179487181,4185.641025641027,4176.923076923078,352.0,2047.0,2048.0,0.0,0.0,4.0,4.0,4.0,4.0,0.0,4.0,4.0,4.0,4.0,0.0,4.0,4.0,4.0,4.0,4.0,4.0
110.0,0.0,4191.282051282053,4167.692307692309,4111.282051282053,4200.512820512822,4165.641025641027,4194.871794871797,4166.666666666668,4189.743589743592,4185.128205128207,4185.641025641027,4194.871794871797,4199.487179487181,4189.743589743592,4184.615384615386,863.0,2047.0,2048.0,0.0,0.0,4.0,4.0,4.0,4.0,0.0,4.0,4.0,4.0,4.0,0.0,4.0,4.0,4.0,4.0,4.0,4.0
111.0,0.0,4190.769230769232,4171.282051282053,4270.769230769232,4193.333333333335,4229.743589743592,4205.128205128207,4232.307692307694,4190.256410256412,4185.641025641027,4185.641025641027,4199.487179487181,4200.000000000002,4190.256410256412,4183.076923076925,820.0,2047.0,2048.0,0.0,0.0,4.0,4.0,4.0,4.0,0.0,4.0,4.0,4.0,4.0,0.0,4.0,4.0,4.0,4.0,4.0,4.0
112.0,0.0,4189.743589743592,4167.692307692309,4303.076923076925,4192.8205128205145,4225.641025641027,4200.000000000002,4234.871794871797,4186.666666666668,4184.615384615386,4185.641025641027,4206.153846153848,4200.512820512822,4202.564102564104,4184.615384615386,851.0,2047.0,2048.0,0.0,0.0,4.0,4.0,4.0,4.0,0.0,4.0,4.0,4.0,4.0,0.0,4.0,4.0,4.0,4.0,4.0,4.0
113.0,0.0,4185.641025641027,4161.0256410256425,4168.71794871795,4195.897435897437,4166.153846153848,4193.846153846155,4189.743589743592,4191.794871794873,4187.179487179489,4185.641025641027,4203.076923076925,4197.94871794872,4203.076923076925,4181.538461538463,352.0,2047.0,2048.0,0.0,0.0,4.0,4.0,4.0,4.0,0.0,4.0,4.0,4.0,4.0,0.0,4.0,4.0,4.0,4.0,4.0,4.0
114.0,0.0,4187.179487179489,4163.076923076925,4089.743589743591,4190.769230769232,4146.153846153848,4189.743589743592,4161.0256410256425,4189.743589743592,4186.153846153848,4185.128205128207,4202.051282051283,4205.128205128207,4198.97435897436,4180.000000000002,863.0,2047.0,2048.0,0.0,0.0,4.0,4.0,4.0,4.0,0.0,4.0,4.0,4.0,4.0,0.0,4.0,4.0,4.0,4.0,4.0,4.0
115.0,0.0,4190.769230769232,4165.641025641027,4161.0256410256425,4190.256410256412,4182.051282051283,4184.102564102565,4172.8205128205145,4172.307692307694,4180.512820512822,4184.615384615386,4201.538461538463,4197.94871794872,4195.384615384617,4179.487179487181,820.0,2047.0,2048.0,0.0,0.0,4.0,4.0,4.0,4.0,0.0,4.0,4.0,4.0,4.0,0.0,4.0,4.0,4.0,4.0,4.0,4.0
116.0,0.0,4184.615384615386,4158.97435897436,4260.512820512822,4192.8205128205145,4225.128205128207,4186.666666666668,4210.256410256412,4173.333333333335,4181.538461538463,4185.641025641027,4191.282051282053,4192.307692307694,4184.615384615386,4172.8205128205145,851.0,2047.0,2048.0,0.0,0.0,4.0,4.0,4.0,4.0,0.0,4.0,4.0,4.0,4.0,0.0,4.0,4.0,4.0,4.0,4.0,4.0
117.0,0.0,4175.897435897437,4149.743589743592,4263.076923076925,4185.128205128207,4218.46153846154,4187.179487179489,4225.128205128207,4186.666666666668,4185.128205128207,4185.128205128207,4191.282051282053,4196.410256410258,4191.794871794873,4174.3589743589755,352.0,2047.0,2048.0,0.0,0.0,4.0,4.0,4.0,4.0,0.0,4.0,4.0,4.0,4.0,0.0,4.0,4.0,4.0,4.0,4.0,4.0
118.0,0.0,4181.0256410256425,4151.794871794873,4161.538461538463,4183.589743589745,4167.179487179489,4183.076923076925,4188.20512820513,4185.128205128207,4185.128205128207,4185.128205128207,4203.589743589745,4196.410256410258,4209.743589743592,4186.153846153848,863.0,2047.0,2048.0,0.0,0.0,4.0,4.0,4.0,4.0,0.0,4.0,4.0,4.0,4.0,0.0,4.0,4.0,4.0,4.0,4.0,4.0
119.0,0.0,4190.256410256412,4154.871794871797,4069.230769230771,4189.743589743592,4138.46153846154,4190.256410256412,4149.743589743592,4190.769230769232,4185.128205128207,4186.666666666668,4207.179487179489,4201.0256410256425,4206.666666666668,4188.71794871795,820.0,2047.0,2048.0,0.0,0.0,4.0,4.0,4.0,4.0,0.0,4.0,4.0,4.0,4.0,0.0,4.0,4.0,4.0,4.0,4.0,4.0
120.0,0.0,4185.128205128207,4151.282051282053,4109.743589743592,4183.589743589745,4168.20512820513,4201.538461538463,4177.94871794872,4207.179487179489,4189.743589743592,4185.641025641027,4204.102564102565,4196.410256410258,4194.871794871797,4181.538461538463,851.0,2047.0,2048.0,0.0,0.0,4.0,4.0,4.0,4.0,0.0,4.0,4.0,4.0,4.0,0.0,4.0,4.0,4.0,4.0,4.0,4.0
121.0,0.0,4186.666666666668,4161.0256410256425,4258.97435897436,4182.051282051283,4227.179487179489,4198.97435897436,4233.846153846155,4195.384615384617,4186.153846153848,4185.128205128207,4200.512820512822,4194.871794871797,4191.794871794873,4178.46153846154,352.0,2047.0,2048.0,0.0,0.0,4.0,4.0,4.0,4.0,0.0,4.0,4.0,4.0,4.0,0.0,4.0,4.0,4.0,4.0,4.0,4.0
122.0,0.0,4190.769230769232,4171.282051282053,4310.256410256412,4191.794871794873,4234.871794871797,4185.641025641027,4234.871794871797,4172.8205128205145,4175.384615384617,4186.666666666668,4190.256410256412,4196.923076923078,4184.615384615386,4172.8205128205145,863.0,2047.0,2048.0,0.0,0.0,4.0,4.0,4.0,4.0,0.0,4.0,4.0,4.0,4.0,0.0,4.0,4.0,4.0,4.0,4.0,4.0
123.0,0.0,4177.94871794872,4160.512820512822,4175.897435897437,4190.256410256412,4176.410256410258,4181.0256410256425,4183.589743589745,4172.307692307694,4170.256410256412,4185.641025641027,4182.051282051283,4186.666666666668,4174.3589743589755,4163.076923076925,820.0,2047.0,2048.0,0.0,0.0,4.0,4.0,4.0,4.0,0.0,4.0,4.0,4.0,4.0,0.0,4.0,4.0,4.0,4.0,4.0,4.0
124.0,0.0,4172.307692307694,4150.769230769232,4070.256410256412,4184.615384615386,4140.000000000002,4183.589743589745,4149.23076923077,4171.794871794873,4171.282051282053,4185.128205128207,4184.102564102565,4191.794871794873,4178.97435897436,4166.666666666668,851.0,2047.0,2048.0,0.0,0.0,4.0,4.0,4.0,4.0,0.0,4.0,4.0,4.0,4.0,0.0,4.0,4.0,4.0,4.0,4.0,4.0
125.0,0.0,4181.0256410256425,4160.000000000002,4138.46153846154,4191.794871794873,4173.846153846155,4184.615384615386,4174.3589743589755,4169.23076923077,4170.256410256412,4187.179487179489,4187.692307692309,4197.435897435899,4187.179487179489,4172.307692307694,352.0,2047.0,2048.0,0.0,0.0,4.0,4.0,4.0,4.0,0.0,4.0,4.0,4.0,4.0,0.0,4.0,4.0,4.0,4.0,4.0,4.0
126.0,0.0,4184.102564102565,4173.333333333335,4251.794871794873,4200.000000000002,4222.564102564104,4188.71794871795,4215.897435897437,4179.487179487181,4169.23076923077,4187.692307692309,4189.23076923077,4199.487179487181,4184.615384615386,4171.794871794873,863.0,2047.0,2048.0,0.0,0.0,4.0,4.0,4.0,4.0,0.0,4.0,4.0,4.0,4.0,0.0,4.0,4.0,4.0,4.0,4.0,4.0
127.0,0.0,4181.538461538463,4168.71794871795,4247.692307692309,4197.94871794872,4211.794871794873,4192.307692307694,4214.3589743589755,4189.23076923077,4174.871794871797,4186.153846153848,4194.871794871797,4201.0256410256425,4182.564102564104,4177.435897435899,820.0,2047.0,2048.0,0.0,0.0,4.0,4.0,4.0,4.0,0.0,4.0,4.0,4.0,4.0,0.0,4.0,4.0,4.0,4.0,4.0,4.0
128.0,0.0,4178.97435897436,4155.897435897437,4157.435897435899,4196.923076923078,4168.71794871795,4187.692307692309,4179.487179487181,4185.128205128207,4182.564102564104,4186.153846153848,4196.923076923078,4195.384615384617,4187.179487179489,4178.97435897436,851.0,2047.0,2048.0,0.0,0.0,4.0,4.0,4.0,4.0,0.0,4.0,4.0,4.0,4.0,0.0,4.0,4.0,4.0,4.0,4.0,4.0
0.0,0.0,4183.589743589745,4159.487179487181,4120.512820512822,4203.589743589745,4164.102564102565,4185.128205128207,4165.128205128207,4182.564102564104,4184.615384615386,4186.153846153848,4192.8205128205145,4202.564102564104,4189.743589743592,4175.384615384617,686.0,2047.0,2048.0,0.0,0.0,4.0,4.0,4.0,4.0,0.0,4.0,4.0,4.0,4.0,0.0,4.0,4.0,4.0,4.0,4.0,4.0
1.0,0.0,4188.71794871795,4171.794871794873,4138.97435897436,4202.564102564104,4177.435897435899,4189.743589743592,4175.897435897437,4185.128205128207,4179.487179487181,4184.615384615386,4188.71794871795,4198.46153846154,4187.179487179489,4177.94871794872,829.0,2047.0,2048.0,0.0,0.0,4.0,4.0,4.0,4.0,0.0,4.0,4.0,4.0,4.0,0.0,4.0,4.0,4.0,4.0,4.0,4.0
2.0,0.0,4182.564102564104,4168.71794871795,4188.71794871795,4190.256410256412,4195.897435897437,4187.179487179489,4194.3589743589755,4176.923076923078,4170.769230769232,4184.615384615386,4183.076923076925,4188.71794871795,4183.076923076925,4174.3589743589755,804.0,2047.0,2048.0,0.0,0.0,4.0,4.0,4.0,4.0,0.0,4.0,4.0,4.0,4.0,0.0,4.0,4.0,4.0,4.0,4.0,4.0
3.0,0.0,4175.384615384617,4155.384615384617,4263.076923076925,4189.743589743592,4224.102564102565,4183.076923076925,4225.641025641027,4172.307692307694,4169.743589743592,4186.666666666668,4182.051282051283,4195.384615384617,4186.666666666668,4165.641025641027,796.0,2047.0,2048.0,0.0,0.0,4.0,4.0,4.0,4.0,0.0,4.0,4.0,4.0,4.0,0.0,4.0,4.0,4.0,4.0,4.0,4.0
4.0,0.0,4175.384615384617,4146.666666666668,4246.666666666668,4193.333333333335,4210.256410256412,4190.256410256412,4228.71794871795,4180.512820512822,4175.897435897437,4184.102564102565,4180.512820512822,4191.794871794873,4188.71794871795,4162.564102564104,0.0,2047.0,2048.0,0.0,0.0,4.0,4.0,4.0,4.0,0.0,4.0,4.0,4.0,4.0,0.0,4.0,4.0,4.0,4.0,4.0,4.0
5.0,0.0,4180.000000000002,4147.179487179489,4112.307692307694,4192.8205128205145,4151.282051282053,4199.487179487181,4170.256410256412,4187.179487179489,4179.487179487181,4185.128205128207,4180.000000000002,4192.8205128205145,4183.076923076925,4166.666666666668,782.0,2047.0,2048.0,0.0,0.0,4.0,4.0,4.0,4.0,0.0,4.0,4.0,4.0,4.0,0.0,4.0,4.0,4.0,4.0,4.0,4.0
6.0,0.0,4185.128205128207,4154.3589743589755,4045.1282051282064,4194.3589743589755,4132.8205128205145,4198.97435897436,4131.282051282053,4186.666666666668,4181.0256410256425,4191.794871794873,4197.435897435899,4195.897435897437,4196.923076923078,4178.97435897436,803.0,2047.0,2048.0,0.0,0.0,4.0,4.0,4.0,4.0,0.0,4.0,4.0,4.0,4.0,0.0,4.0,4.0,4.0,4.0,4.0,4.0
7.0,0.0,4182.051282051283,4154.3589743589755,4170.256410256412,4193.846153846155,4194.871794871797,4195.897435897437,4179.487179487181,4181.538461538463,4181.538461538463,4190.769230769232,4204.615384615386,4196.410256410258,4210.256410256412,4186.153846153848,840.0,2047.0,2048.0,0.0,0.0,4.0,4.0,4.0,4.0,0.0,4.0,4.0,4.0,4.0,0.0,4.0,4.0,4.0,4.0,4.0,4.0
8.0,0.0,4167.179487179489,4141.538461538463,4306.666666666668,4185.128205128207,4246.666666666668,4200.512820512822,4246.153846153848,4184.102564102565,4181.538461538463,4184.615384615386,4177.435897435899,4195.897435897437,4183.076923076925,4168.71794871795,649.0,2047.0,2048.0,0.0,0.0,4.0,4.0,4.0,4.0,0.0,4.0,4.0,4.0,4.0,0.0,4.0,4.0,4.0,4.0,4.0,4.0
9.0,0.0,4161.538461538463,4133.333333333335,4244.615384615386,4180.512820512822,4206.153846153848,4203.589743589745,4237.435897435899,4201.538461538463,4185.641025641027,4185.641025641027,4169.743589743592,4190.256410256412,4168.20512820513,4156.410256410258,0.0,2047.0,2048.0,0.0,0.0,4.0,4.0,4.0,4.0,0.0,4.0,4.0,4.0,4.0,0.0,4.0,4.0,4.0,4.0,4.0,4.0
10.0,0.0,4181.0256410256425,4140.512820512822,4107.692307692309,4189.23076923077,4146.153846153848,4191.282051282053,4175.384615384617,4206.153846153848,4190.769230769232,4187.692307692309,4201.0256410256425,4203.589743589745,4202.564102564104,4178.97435897436,894.0,2047.0,2048.0,0.0,0.0,4.0,4.0,4.0,4.0,0.0,4.0,4.0,4.0,4.0,0.0,4.0,4.0,4.0,4.0,4.0,4.0
11.0,0.0,4189.23076923077,4147.692307692309,4109.23076923077,4191.794871794873,4158.97435897436,4178.97435897436,4162.051282051283,4187.692307692309,4188.71794871795,4184.102564102565,4209.743589743592,4204.102564102565,4224.102564102565,4192.307692307694,869.0,2047.0,2048.0,0.0,0.0,4.0,4.0,4.0,4.0,0.0,4.0,4.0,4.0,4.0,0.0,4.0,4.0,4.0,4.0,4.0,4.0
12.0,0.0,4180.512820512822,4146.153846153848,4226.153846153848,4188.20512820513,4213.846153846155,4183.076923076925,4211.282051282053,4181.0256410256425,4182.564102564104,4183.589743589745,4195.384615384617,4194.3589743589755,4211.282051282053,4180.000000000002,851.0,2047.0,2048.0,0.0,0.0,4.0,4.0,4.0,4.0,0.0,4.0,4.0,4.0,4.0,0.0,4.0,4.0,4.0,4.0,4.0,4.0
13.0,0.0,4182.051282051283,4145.641025641027,4262.564102564104,4192.8205128205145,4215.897435897437,4187.692307692309,4217.435897435899,4184.102564102565,4179.487179487181,4185.641025641027,4195.897435897437,4200.512820512822,4204.102564102565,4177.435897435899,351.0,2047.0,2048.0,0.0,0.0,4.0,4.0,4.0,4.0,0.0,4.0,4.0,4.0,4.0,0.0,4.0,4.0,4.0,4.0,4.0,4.0
14.0,0.0,4183.076923076925,4143.589743589745,4146.666666666668,4195.897435897437,4162.564102564104,4182.564102564104,4163.076923076925,4185.128205128207,4183.076923076925,4185.128205128207,4202.564102564104,4196.923076923078,4212.8205128205145,4186.153846153848,894.0,2047.0,2048.0,0.0,0.0,4.0,4.0,4.0,4.0,0.0,4.0,4.0,4.0,4.0,0.0,4.0,4.0,4.0,4.0,4.0,4.0
15.0,0.0,4176.410256410258,4138.46153846154,4085.641025641027,4189.23076923077,4153.333333333335,4181.538461538463,4150.256410256412,4193.846153846155,4188.20512820513,4185.128205128207,4200.000000000002,4199.487179487181,4214.871794871797,4184.102564102565,869.0,2047.0,2048.0,0.0,0.0,4.0,4.0,4.0,4.0,0.0,4.0,4.0,4.0,4.0,0.0,4.0,4.0,4.0,4.0,4.0,4.0
16.0,0.0,4178.46153846154,4143.589743589745,4191.282051282053,4184.102564102565,4201.0256410256425,4184.615384615386,4200.000000000002,4193.333333333335,4176.923076923078,4185.641025641027,4191.282051282053,4198.97435897436,4201.538461538463,4170.769230769232,0.0,2047.0,2048.0,0.0,0.0,4.0,4.0,4.0,4.0,0.0,4.0,4.0,4.0,4.0,0.0,4.0,4.0,4.0,4.0,4.0,4.0
17.0,0.0,4189.23076923077,4154.3589743589755,4282.564102564104,4189.23076923077,4228.20512820513,4185.128205128207,4232.307692307694,4181.538461538463,4167.179487179489,4186.153846153848,4184.102564102565,4192.307692307694,4191.794871794873,4164.102564102565,0.0,2047.0,2048.0,0.0,0.0,4.0,4.0,4.0,4.0,0.0,4.0,4.0,4.0,4.0,0.0,4.0,4.0,4.0,4.0,4.0,4.0
18.0,0.0,4194.871794871797,4155.384615384617,4225.128205128207,4190.256410256412,4194.3589743589755,4182.051282051283,4205.128205128207,4180.512820512822,4177.94871794872,4186.153846153848,4188.71794871795,4198.46153846154,4197.435897435899,4174.3589743589755,0.0,2047.0,2048.0,0.0,0.0,4.0,4.0,4.0,4.0,0.0,4.0,4.0,4.0,4.0,0.0,4.0,4.0,4.0,4.0,4.0,4.0
19.0,0.0,4190.769230769232,4148.20512820513,4118.46153846154,4187.692307692309,4149.743589743592,4178.97435897436,4162.051282051283,4186.666666666668,4188.20512820513,4185.128205128207,4202.051282051283,4197.94871794872,4206.666666666668,4184.102564102565,0.0,2047.0,2048.0,0.0,0.0,4.0,4.0,4.0,4.0,0.0,4.0,4.0,4.0,4.0,0.0,4.0,4.0,4.0,4.0,4.0,4.0
20.0,0.0,4191.282051282053,4146.153846153848,4129.23076923077,4190.256410256412,4168.20512820513,4181.0256410256425,4167.179487179489,4187.692307692309,4180.512820512822,4186.153846153848,4196.410256410258,4200.512820512822,4201.0256410256425,4179.487179487181,0.0,2047.0,2048.0,0.0,0.0,4.0,4.0,4.0,4.0,0.0,4.0,4.0,4.0,4.0,0.0,4.0,4.0,4.0,4.0,4.0,4.0
21.0,0.0,4189.743589743592,4146.666666666668,4226.153846153848,4188.71794871795,4208.20512820513,4179.487179487181,4202.564102564104,4181.538461538463,4166.666666666668,4186.153846153848,4171.282051282053,4198.46153846154,4177.94871794872,4166.666666666668,0.0,2047.0,2048.0,0.0,0.0,4.0,4.0,4.0,4.0,0.0,4.0,4.0,4.0,4.0,0.0,4.0,4.0,4.0,4.0,4.0,4.0
22.0,0.0,4178.97435897436,4144.102564102565,4248.71794871795,4184.615384615386,4204.615384615386,4177.435897435899,4203.076923076925,4174.3589743589755,4165.128205128207,4185.128205128207,4169.23076923077,4191.282051282053,4170.256410256412,4163.589743589745,0.0,2047.0,2048.0,0.0,0.0,4.0,4.0,4.0,4.0,0.0,4.0,4.0,4.0,4.0,0.0,4.0,4.0,4.0,4.0,4.0,4.0
23.0,0.0,4177.435897435899,4138.97435897436,4157.94871794872,4186.153846153848,4170.256410256412,4180.512820512822,4171.794871794873,4180.512820512822,4177.435897435899,4184.615384615386,4193.333333333335,4198.97435897436,4192.307692307694,4174.3589743589755,0.0,2047.0,2048.0,0.0,0.0,4.0,4.0,4.0,4.0,0.0,4.0,4.0,4.0,4.0,0.0,4.0,4.0,4.0,4.0,4.0,4.0
24.0,0.0,4181.538461538463,4137.94871794872,4101.538461538463,4186.153846153848,4157.94871794872,4180.512820512822,4167.692307692309,4195.384615384617,4185.128205128207,4184.615384615386,4203.076923076925,4196.923076923078,4213.846153846155,4182.051282051283,0.0,2047.0,2048.0,0.0,0.0,4.0,4.0,4.0,4.0,0.0,4.0,4.0,4.0,4.0,0.0,4.0,4.0,4.0,4.0,4.0,4.0
25.0,0.0,4182.051282051283,4137.94871794872,4204.102564102565,4184.102564102565,4201.0256410256425,4177.435897435899,4207.692307692309,4195.897435897437,4181.538461538463,4184.615384615386,4200.512820512822,4197.94871794872,4219.487179487181,4184.615384615386,0.0,2047.0,2048.0,0.0,0.0,4.0,4.0,4.0,4.0,0.0,4.0,4.0,4.0,4.0,0.0,4.0,4.0,4.0,4.0,4.0,4.0
26.0,0.0,4182.051282051283,4128.20512820513,4297.94871794872,4185.128205128207,4227.692307692309,4181.538461538463,4234.3589743589755,4196.410256410258,4183.076923076925,4185.641025641027,4214.3589743589755,4204.615384615386,4231.794871794873,4190.769230769232,0.0,2047.0,2048.0,0.0,0.0,4.0,4.0,4.0,4.0,0.0,4.0,4.0,4.0,4.0,0.0,4.0,4.0,4.0,4.0,4.0,4.0
27.0,0.0,4184.615384615386,4118.46153846154,4198.46153846154,4184.102564102565,4177.94871794872,4186.153846153848,4196.923076923078,4202.564102564104,4190.769230769232,4187.179487179489,4225.641025641027,4200.512820512822,4249.23076923077,4198.97435897436,0.0,2047.0,2048.0,0.0,0.0,4.0,4.0,4.0,4.0,0.0,4.0,4.0,4.0,4.0,0.0,4.0,4.0,4.0,4.0,4.0,4.0
28.0,0.0,4179.487179487181,4114.3589743589755,4060.0000000000014,4175.384615384617,4133.846153846155,4184.615384615386,4144.102564102565,4196.410256410258,4187.692307692309,4186.666666666668,4219.487179487181,4203.589743589745,4246.153846153848,4202.051282051283,0.0,2047.0,2048.0,0.0,0.0,4.0,4.0,4.0,4.0,0.0,4.0,4.0,4.0,4.0,0.0,4.0,4.0,4.0,4.0,4.0,4.0
29.0,0.0,4172.8205128205145,4106.666666666668,4111.794871794873,4169.23076923077,4170.256410256412,4180.512820512822,4163.076923076925,4193.333333333335,4184.102564102565,4184.615384615386,4217.94871794872,4202.051282051283,4237.94871794872,4199.487179487181,0.0,2047.0,2048.0,0.0,0.0,4.0,4.0,4.0,4.0,0.0,4.0,4.0,4.0,4.0,0.0,4.0,4.0,4.0,4.0,4.0,4.0
30.0,0.0,4182.051282051283,4107.692307692309,4269.23076923077,4172.8205128205145,4229.23076923077,4181.0256410256425,4226.666666666668,4201.0256410256425,4191.794871794873,4184.615384615386,4225.128205128207,4203.589743589745,4243.589743589745,4198.97435897436,0.0,2047.0,2048.0,0.0,0.0,4.0,4.0,4.0,4.0,0.0,4.0,4.0,4.0,4.0,0.0,4.0,4.0,4.0,4.0,4.0,4.0
31.0,0.0,4185.128205128207,4115.384615384617,4284.102564102565,4181.0256410256425,4216.410256410258,4195.897435897437,4243.076923076925,4205.641025641027,4200.000000000002,4186.153846153848,4229.23076923077,4209.23076923077,4248.20512820513,4200.512820512822,0.0,2047.0,2048.0,0.0,0.0,4.0,4.0,4.0,4.0,0.0,4.0,4.0,4.0,4.0,0.0,4.0,4.0,4.0,4.0,4.0,4.0
32.0,0.0,4179.487179487181,4114.871794871797,4156.410256410258,4181.0256410256425,4161.0256410256425,4201.538461538463,4200.000000000002,4210.256410256412,4201.538461538463,4186.153846153848,4229.743589743592,4204.615384615386,4247.692307692309,4202.564102564104,0.0,2047.0,2048.0,0.0,0.0,4.0,4.0,4.0,4.0,0.0,4.0,4.0,4.0,4.0,0.0,4.0,4.0,4.0,4.0,4.0,4.0
33.0,0.0,4190.256410256412,4114.3589743589755,4101.0256410256425,4177.435897435899,4152.307692307694,4187.179487179489,4170.256410256412,4213.333333333335,4200.512820512822,4185.641025641027,4233.846153846155,4208.20512820513,4253.846153846155,4207.179487179489,0.0,2047.0,2048.0,0.0,0.0,4.0,4.0,4.0,4.0,0.0,4.0,4.0,4.0,4.0,0.0,4.0,4.0,4.0,4.0,4.0,4.0
34.0,0.0,4193.333333333335,4113.846153846155,4170.256410256412,4176.923076923078,4186.153846153848,4186.153846153848,4193.846153846155,4207.692307692309,4200.512820512822,4185.128205128207,4233.333333333335,4206.153846153848,4253.846153846155,4206.153846153848,0.0,2047.0,2048.0,0.0,0.0,4.0,4.0,4.0,4.0,0.0,4.0,4.0,4.0,4.0,0.0,4.0,4.0,4.0,4.0,4.0,4.0
35.0,0.0,4179.487179487181,4110.769230769232,4239.487179487181,4176.923076923078,4208.71794871795,4201.0256410256425,4227.179487179489,4211.282051282053,4202.564102564104,4184.615384615386,4227.692307692309,4203.076923076925,4240.000000000002,4199.487179487181,0.0,2047.0,2048.0,0.0,0.0,4.0,4.0,4.0,4.0,0.0,4.0,4.0,4.0,4.0,0.0,4.0,4.0,4.0,4.0,4.0,4.0
36.0,0.0,4185.641025641027,4116.410256410258,4227.692307692309,4181.0256410256425,4196.410256410258,4203.589743589745,4222.051282051283,4219.487179487181,4205.128205128207,4185.641025641027,4231.282051282053,4209.23076923077,4241.0256410256425,4207.179487179489,0.0,2047.0,2048.0,0.0,0.0,4.0,4.0,4.0,4.0,0.0,4.0,4.0,4.0,4.0,0.0,4.0,4.0,4.0,4.0,4.0,4.0
37.0,0.0,4196.923076923078,4125.641025641027,4178.97435897436,4184.615384615386,4178.97435897436,4191.794871794873,4197.435897435899,4207.692307692309,4202.564102564104,4184.615384615386,4236.410256410258,4208.71794871795,4251.794871794873,4212.8205128205145,0.0,2047.0,2048.0,0.0,0.0,4.0,4.0,4.0,4.0,0.0,4.0,4.0,4.0,4.0,0.0,4.0,4.0,4.0,4.0,4.0,4.0
38.0,0.0,4184.102564102565,4114.871794871797,4189.743589743592,4177.435897435899,4188.71794871795,4183.076923076925,4200.000000000002,4196.923076923078,4197.435897435899,4184.102564102565,4228.71794871795,4210.256410256412,4250.769230769232,4204.102564102565,0.0,2047.0,2048.0,0.0,0.0,4.0,4.0,4.0,4.0,0.0,4.0,4.0,4.0,4.0,0.0,4.0,4.0,4.0,4.0,4.0,4.0
39.0,0.0,4172.8205128205145,4099.487179487181,4212.307692307694,4173.333333333335,4193.333333333335,4183.076923076925,4209.743589743592,4203.076923076925,4200.000000000002,4185.641025641027,4225.128205128207,4206.666666666668,4248.71794871795,4201.0256410256425,0.0,2047.0,2048.0,0.0,0.0,4.0,4.0,4.0,4.0,0.0,4.0,4.0,4.0,4.0,0.0,4.0,4.0,4.0,4.0,4.0,4.0
40.0,0.0,4177.435897435899,4107.179487179489,4158.46153846154,4182.051282051283,4172.8205128205145,4185.128205128207,4181.538461538463,4204.615384615386,4200.512820512822,4186.153846153848,4230.769230769232,4206.153846153848,4247.179487179489,4207.692307692309,0.0,2047.0,2048.0,0.0,0.0,4.0,4.0,4.0,4.0,0.0,4.0,4.0,4.0,4.0,0.0,4.0,4.0,4.0,4.0,4.0,4.0
41.0,0.0,4178.97435897436,4111.282051282053,4109.23076923077,4178.97435897436,4161.538461538463,4182.051282051283,4157.94871794872,4201.538461538463,4198.46153846154,4185.128205128207,4232.8205128205145,4208.20512820513,4243.076923076925,4206.153846153848,0.0,2047.0,2048.0,0.0,0.0,4.0,4.0,4.0,4.0,0.0,4.0,4.0,4.0,4.0,0.0,4.0,4.0,4.0,4.0,4.0,4.0
42.0,0.0,4174.3589743589755,4102.051282051283,4175.384615384617,4164.102564102565,4190.769230769232,4174.871794871797,4190.256410256412,4202.564102564104,4197.94871794872,4184.615384615386,4223.589743589745,4197.435897435899,4232.8205128205145,4194.3589743589755,0.0,2047.0,2048.0,0.0,0.0,4.0,4.0,4.0,4.0,0.0,4.0,4.0,4.0,4.0,0.0,4.0,4.0,4.0,4.0,4.0,4.0
43.0,0.0,4180.000000000002,4106.666666666668,4286.666666666668,4172.307692307694,4230.769230769232,4172.8205128205145,4231.282051282053,4198.97435897436,4189.743589743592,4185.128205128207,4212.8205128205145,4200.000000000002,4218.46153846154,4193.333333333335,0.0,2047.0,2048.0,0.0,0.0,4.0,4.0,4.0,4.0,0.0,4.0,4.0,4.0,4.0,0.0,4.0,4.0,4.0,4.0,4.0,4.0
44.0,0.0,4182.051282051283,4113.333333333335,4261.0256410256425,4187.179487179489,4206.153846153848,4175.384615384617,4219.487179487181,4199.487179487181,4185.128205128207,4185.128205128207,4217.94871794872,4205.128205128207,4221.0256410256425,4199.487179487181,0.0,2047.0,2048.0,0.0,0.0,4.0,4.0,4.0,4.0,0.0,4.0,4.0,4.0,4.0,0.0,4.0,4.0,4.0,4.0,4.0,4.0
45.0,0.0,4177.94871794872,4106.666666666668,4122.051282051283,4180.000000000002,4149.23076923077,4174.3589743589755,4170.769230769232,4200.512820512822,4190.769230769232,4185.128205128207,4227.692307692309,4205.641025641027,4234.3589743589755,4201.538461538463,0.0,2047.0,2048.0,0.0,0.0,4.0,4.0,4.0,4.0,0.0,4.0,4.0,4.0,4.0,0.0,4.0,4.0,4.0,4.0,4.0,4.0
46.0,0.0,4181.538461538463,4110.769230769232,4084.102564102566,4173.846153846155,4149.23076923077,4168.71794871795,4150.256410256412,4189.743589743592,4190.769230769232,4186.153846153848,4224.102564102565,4209.743589743592,4232.8205128205145,4204.102564102565,0.0,2047.0,2048.0,0.0,0.0,4.0,4.0,4.0,4.0,0.0,4.0,4.0,4.0,4.0,0.0,4.0,4.0,4.0,4.0,4.0,4.0
47.0,0.0,4177.94871794872,4122.564102564104,4190.256410256412,4182.564102564104,4196.923076923078,4167.692307692309,4181.0256410256425,4178.97435897436,4182.051282051283,4186.153846153848,4213.846153846155,4200.512820512822,4221.0256410256425,4199.487179487181,0.0,2047.0,2048.0,0.0,0.0,4.0,4.0,4.0,4.0,0.0,4.0,4.0,4.0,4.0,0.0,4.0,4.0,4.0,4.0,4.0,4.0
48.0,0.0,4177.94871794872,4117.94871794872,4276.410256410258,4187.692307692309,4224.102564102565,4175.897435897437,4215.384615384617,4177.435897435899,4179.487179487181,4185.128205128207,4211.282051282053,4200.512820512822,4215.897435897437,4191.282051282053,0.0,2047.0,2048.0,0.0,0.0,4.0,4.0,4.0,4.0,0.0,4.0,4.0,4.0,4.0,0.0,4.0,4.0,4.0,4.0,4.0,4.0
49.0,0.0,4186.666666666668,4107.179487179489,4230.256410256412,4183.589743589745,4197.94871794872,4183.589743589745,4201.0256410256425,4180.000000000002,4181.0256410256425,4185.128205128207,4213.846153846155,4205.128205128207,4218.97435897436,4195.384615384617,0.0,2047.0,2048.0,0.0,0.0,4.0,4.0,4.0,4.0,0.0,4.0,4.0,4.0,4.0,0.0,4.0,4.0,4.0,4.0,4.0,4.0
50.0,0.0,4184.102564102565,4105.128205128207,4148.20512820513,4184.102564102565,4166.666666666668,4185.128205128207,4172.307692307694,4191.282051282053,4186.666666666668,4185.641025641027,4215.897435897437,4204.102564102565,4224.615384615386,4200.512820512822,0.0,2047.0,2048.0,0.0,0.0,4.0,4.0,4.0,4.0,0.0,4.0,4.0,4.0,4.0,0.0,4.0,4.0,4.0,4.0,4.0,4.0
51.0,0.0,4178.46153846154,4110.256410256412,4153.846153846155,4191.794871794873,4173.846153846155,4186.153846153848,4183.076923076925,4200.512820512822,4191.282051282053,4185.128205128207,4218.46153846154,4209.743589743592,4228.20512820513,4197.435897435899,0.0,2047.0,2048.0,0.0,0.0,4.0,4.0,4.0,4.0,0.0,4.0,4.0,4.0,4.0,0.0,4.0,4.0,4.0,4.0,4.0,4.0
52.0,0.0,4185.641025641027,4118.97435897436,4200.000000000002,4196.410256410258,4192.8205128205145,4186.153846153848,4204.615384615386,4187.692307692309,4184.102564102565,4184.615384615386,4217.435897435899,4205.128205128207,4229.743589743592,4199.487179487181,0.0,2047.0,2048.0,0.0,0.0,4.0,4.0,4.0,4.0,0.0,4.0,4.0,4.0,4.0,0.0,4.0,4.0,4.0,4.0,4.0,4.0
53.0,0.0,4194.871794871797,4126.153846153848,4206.666666666668,4198.46153846154,4190.769230769232,4184.615384615386,4198.97435897436,4186.153846153848,4187.692307692309,4185.128205128207,4216.410256410258,4207.692307692309,4232.307692307694,4207.179487179489,0.0,2047.0,2048.0,0.0,0.0,4.0,4.0,4.0,4.0,0.0,4.0,4.0,4.0,4.0,0.0,4.0,4.0,4.0,4.0,4.0,4.0
54.0,0.0,4195.384615384617,4127.692307692309,4187.179487179489,4197.94871794872,4178.46153846154,4186.153846153848,4191.282051282053,4203.589743589745,4201.0256410256425,4185.641025641027,4220.512820512822,4211.282051282053,4226.666666666668,4204.102564102565,0.0,2047.0,2048.0,0.0,0.0,4.0,4.0,4.0,4.0,0.0,4.0,4.0,4.0,4.0,0.0,4.0,4.0,4.0,4.0,4.0,4.0
55.0,0.0,4191.282051282053,4123.589743589745,4210.769230769232,4193.333333333335,4195.384615384617,4187.692307692309,4208.71794871795,4199.487179487181,4196.923076923078,4185.128205128207,4212.8205128205145,4203.589743589745,4215.897435897437,4194.3589743589755,0.0,2047.0,2048.0,0.0,0.0,4.0,4.0,4.0,4.0,0.0,4.0,4.0,4.0,4.0,0.0,4.0,4.0,4.0,4.0,4.0,4.0
56.0,0.0,4181.0256410256425,4110.769230769232,4251.794871794873,4183.589743589745,4213.846153846155,4184.615384615386,4218.97435897436,4181.0256410256425,4184.102564102565,4184.615384615386,4202.051282051283,4203.589743589745,4212.8205128205145,4187.692307692309,0.0,2047.0,2048.0,0.0,0.0,4.0,4.0,4.0,4.0,0.0,4.0,4.0,4.0,4.0,0.0,4.0,4.0,4.0,4.0,4.0,4.0
57.0,0.0,4171.282051282053,4100.000000000002,4179.487179487181,4181.0256410256425,4175.384615384617,4181.538461538463,4187.179487179489,4189.23076923077,4183.589743589745,4184.102564102565,4204.102564102565,4199.487179487181,4215.384615384617,4186.666666666668,0.0,2047.0,2048.0,0.0,0.0,4.0,4.0,4.0,4.0,0.0,4.0,4.0,4.0,4.0,0.0,4.0,4.0,4.0,4.0,4.0,4.0
58.0,0.0,4183.589743589745,4106.153846153848,4077.435897435899,4187.692307692309,4135.384615384617,4184.615384615386,4150.769230769232,4204.102564102565,4193.333333333335,4185.128205128207,4214.3589743589755,4203.589743589745,4225.641025641027,4200.000000000002,0.0,2047.0,2048.0,0.0,0.0,4.0,4.0,4.0,4.0,0.0,4.0,4.0,4.0,4.0,0.0,4.0,4.0,4.0,4.0,4.0,4.0
59.0,0.0,4195.384615384617,4109.743589743592,4134.3589743589755,4187.179487179489,4171.794871794873,4184.102564102565,4169.743589743592,4200.000000000002,4201.538461538463,4184.615384615386,4222.564102564104,4206.153846153848,4240.000000000002,4210.256410256412,0.0,2047.0,2048.0,0.0,0.0,4.0,4.0,4.0,4.0,0.0,4.0,4.0,4.0,4.0,0.0,4.0,4.0,4.0,4.0,4.0,4.0
60.0,0.0,4180.512820512822,4098.46153846154,4274.3589743589755,4181.0256410256425,4227.692307692309,4183.076923076925,4233.846153846155,4196.923076923078,4195.384615384617,4183.589743589745,4214.3589743589755,4198.46153846154,4231.282051282053,4193.333333333335,0.0,2047.0,2048.0,0.0,0.0,4.0,4.0,4.0,4.0,0.0,4.0,4.0,4.0,4.0,0.0,4.0,4.0,4.0,4.0,4.0,4.0
61.0,0.0,4164.615384615386,4097.435897435899,4280.000000000002,4184.102564102565,4214.871794871797,4187.692307692309,4243.589743589745,4199.487179487181,4184.615384615386,4184.615384615386,4202.051282051283,4201.538461538463,4211.794871794873,4182.564102564104,0.0,2047.0,2048.0,0.0,0.0,4.0,4.0,4.0,4.0,0.0,4.0,4.0,4.0,4.0,0.0,4.0,4.0,4.0,4.0,4.0,4.0
62.0,0.0,4172.8205128205145,4107.692307692309,4148.20512820513,4182.051282051283,4155.897435897437,4183.589743589745,4181.538461538463,4198.97435897436,4193.846153846155,4185.128205128207,4208.71794871795,4203.589743589745,4215.384615384617,4194.871794871797,0.0,2047.0,2048.0,0.0,0.0,4.0,4.0,4.0,4.0,0.0,4.0,4.0,4.0,4.0,0.0,4.0,4.0,4.0,4.0,4.0,4.0
63.0,0.0,4190.769230769232,4103.589743589745,4106.153846153848,4180.512820512822,4150.256410256412,4176.923076923078,4158.97435897436,4200.512820512822,4202.051282051283,4184.615384615386,4215.897435897437,4205.128205128207,4222.051282051283,4197.94871794872,0.0,2047.0,2048.0,0.0,0.0,4.0,4.0,4.0,4.0,0.0,4.0,4.0,4.0,4.0,0.0,4.0,4.0,4.0,4.0,4.0,4.0
64.0,0.0,4190.769230769232,4094.8717948717963,4209.23076923077,4180.512820512822,4201.0256410256425,4182.051282051283,4211.282051282053,4201.538461538463,4189.743589743592,4185.641025641027,4206.153846153848,4205.128205128207,4215.897435897437,4189.743589743592,686.0,2047.0,2048.0,0.0,0.0,4.0,4.0,4.0,4.0,0.0,4.0,4.0,4.0,4.0,0.0,4.0,4.0,4.0,4.0,4.0,4.0
65.0,0.0,4175.897435897437,4098.97435897436,4267.179487179489,4167.692307692309,4216.410256410258,4186.666666666668,4234.3589743589755,4192.8205128205145,4184.102564102565,4186.666666666668,4200.512820512822,4201.0256410256425,4215.384615384617,4191.282051282053,829.0,2047.0,2048.0,0.0,0.0,4.0,4.0,4.0,4.0,0.0,4.0,4.0,4.0,4.0,0.0,4.0,4.0,4.0,4.0,4.0,4.0
66.0,0.0,4170.256410256412,4099.487179487181,4171.282051282053,4164.615384615386,4169.743589743592,4183.589743589745,4183.076923076925,4187.179487179489,4189.23076923077,4185.128205128207,4207.179487179489,4207.179487179489,4217.94871794872,4195.897435897437,804.0,2047.0,2048.0,0.0,0.0,4.0,4.0,4.0,4.0,0.0,4.0,4.0,4.0,4.0,0.0,4.0,4.0,4.0,4.0,4.0,4.0
67.0,0.0,4172.8205128205145,4093.333333333335,4060.0000000000014,4182.051282051283,4133.846153846155,4185.641025641027,4149.23076923077,4201.0256410256425,4193.846153846155,4183.589743589745,4208.71794871795,4204.615384615386,4211.282051282053,4192.307692307694,796.0,2047.0,2048.0,0.0,0.0,4.0,4.0,4.0,4.0,0.0,4.0,4.0,4.0,4.0,0.0,4.0,4.0,4.0,4.0,4.0,4.0
68.0,0.0,4175.897435897437,4110.256410256412,4132.8205128205145,4188.20512820513,4177.94871794872,4185.641025641027,4187.179487179489,4204.102564102565,4189.23076923077,4184.615384615386,4198.97435897436,4200.512820512822,4203.076923076925,4190.256410256412,0.0,2047.0,2048.0,0.0,0.0,4.0,4.0,4.0,4.0,0.0,4.0,4.0,4.0,4.0,0.0,4.0,4.0,4.0,4.0,4.0,4.0
69.0,0.0,4177.94871794872,4129.23076923077,4285.128205128207,4183.076923076925,4233.846153846155,4180.512820512822,4232.8205128205145,4183.076923076925,4180.512820512822,4185.641025641027,4190.769230769232,4200.000000000002,4199.487179487181,4187.692307692309,783.0,2047.0,2048.0,0.0,0.0,4.0,4.0,4.0,4.0,0.0,4.0,4.0,4.0,4.0,0.0,4.0,4.0,4.0,4.0,4.0,4.0
70.0,0.0,4172.307692307694,4116.923076923078,4271.794871794873,4183.076923076925,4211.282051282053,4189.23076923077,4232.8205128205145,4183.589743589745,4185.128205128207,4184.615384615386,4196.923076923078,4194.3589743589755,4200.512820512822,4182.051282051283,803.0,2047.0,2048.0,0.0,0.0,4.0,4.0,4.0,4.0,0.0,4.0,4.0,4.0,4.0,0.0,4.0,4.0,4.0,4.0,4.0,4.0
71.0,0.0,4169.743589743592,4109.23076923077,4134.3589743589755,4184.615384615386,4155.897435897437,4196.923076923078,4193.333333333335,4202.051282051283,4194.3589743589755,4184.102564102565,4203.076923076925,4203.076923076925,4204.102564102565,4185.128205128207,826.0,2047.0,2048.0,0.0,0.0,4.0,4.0,4.0,4.0,0.0,4.0,4.0,4.0,4.0,0.0,4.0,4.0,4.0,4.0,4.0,4.0
72.0,0.0,4175.897435897437,4130.769230769232,4087.1794871794887,4191.794871794873,4149.23076923077,4187.692307692309,4165.641025641027,4195.897435897437,4189.23076923077,4184.615384615386,4195.897435897437,4206.153846153848,4202.564102564104,4189.743589743592,649.0,2047.0,2048.0,0.0,0.0,4.0,4.0,4.0,4.0,0.0,4.0,4.0,4.0,4.0,0.0,4.0,4.0,4.0,4.0,4.0,4.0
73.0,0.0,4181.538461538463,4145.641025641027,4185.128205128207,4203.589743589745,4192.8205128205145,4183.589743589745,4190.256410256412,4180.000000000002,4180.512820512822,4185.641025641027,4191.794871794873,4204.102564102565,4198.46153846154,4189.23076923077,0.0,2047.0,2048.0,0.0,0.0,4.0,4.0,4.0,4.0,0.0,4.0,4.0,4.0,4.0,0.0,4.0,4.0,4.0,4.0,4.0,4.0
74.0,0.0,4182.051282051283,4138.97435897436,4266.153846153848,4202.564102564104,4215.897435897437,4190.769230769232,4226.153846153848,4192.307692307694,4186.153846153848,4185.128205128207,4198.97435897436,4209.743589743592,4200.000000000002,4193.846153846155,866.0,2047.0,2048.0,0.0,0.0,4.0,4.0,4.0,4.0,0.0,4.0,4.0,4.0,4.0,0.0,4.0,4.0,4.0,4.0,4.0,4.0
75.0,0.0,4177.435897435899,4128.71794871795,4220.512820512822,4198.97435897436,4190.769230769232,4189.23076923077,4213.333333333335,4206.153846153848,4191.282051282053,4184.615384615386,4202.051282051283,4203.589743589745,4205.641025641027,4198.97435897436,837.0,2047.0,2048.0,0.0,0.0,4.0,4.0,4.0,4.0,0.0,4.0,4.0,4.0,4.0,0.0,4.0,4.0,4.0,4.0,4.0,4.0
76.0,0.0,4178.97435897436,4131.282051282053,4148.71794871795,4201.0256410256425,4168.20512820513,4183.589743589745,4180.512820512822,4190.769230769232,4183.076923076925,4185.128205128207,4197.435897435899,4204.102564102565,4205.128205128207,4197.435897435899,851.0,2047.0,2048.0,0.0,0.0,4.0,4.0,4.0,4.0,0.0,4.0,4.0,4.0,4.0,0.0,4.0,4.0,4.0,4.0,4.0,4.0
77.0,0.0,4176.923076923078,4133.333333333335,4145.641025641027,4199.487179487181,4173.333333333335,4184.615384615386,4182.051282051283,4179.487179487181,4176.410256410258,4185.641025641027,4187.179487179489,4200.512820512822,4192.8205128205145,4185.128205128207,351.0,2047.0,2048.0,0.0,0.0,4.0,4.0,4.0,4.0,0.0,4.0,4.0,4.0,4.0,0.0,4.0,4.0,4.0,4.0,4.0,4.0
78.0,0.0,4174.3589743589755,4132.8205128205145,4177.94871794872,4195.897435897437,4185.641025641027,4185.128205128207,4198.97435897436,4188.20512820513,4179.487179487181,4184.615384615386,4181.0256410256425,4195.897435897437,4185.641025641027,4178.46153846154,866.0,2047.0,2048.0,0.0,0.0,4.0,4.0,4.0,4.0,0.0,4.0,4.0,4.0,4.0,0.0,4.0,4.0,4.0,4.0,4.0,4.0
79.0,0.0,4184.102564102565,4145.641025641027,4202.051282051283,4201.0256410256425,4189.743589743592,4190.769230769232,4207.179487179489,4195.384615384617,4186.666666666668,4185.128205128207,4195.384615384617,4206.153846153848,4198.97435897436,4189.23076923077,837.0,2047.0,2048.0,0.0,0.0,4.0,4.0,4.0,4.0,0.0,4.0,4.0,4.0,4.0,0.0,4.0,4.0,4.0,4.0,4.0,4.0
80.0,0.0,4182.051282051283,4149.23076923077,4213.333333333335,4201.0256410256425,4195.384615384617,4196.923076923078,4211.794871794873,4189.23076923077,4187.179487179489,4185.128205128207,4204.102564102565,4203.589743589745,4206.153846153848,4190.769230769232,851.0,2047.0,2048.0,0.0,0.0,4.0,4.0,4.0,4.0,0.0,4.0,4.0,4.0,4.0,0.0,4.0,4.0,4.0,4.0,4.0,4.0
81.0,0.0,4172.307692307694,4137.435897435899,4210.256410256412,4191.794871794873,4197.435897435899,4197.94871794872,4209.743589743592,4187.692307692309,4182.564102564104,4185.128205128207,4188.20512820513,4197.94871794872,4187.179487179489,4178.46153846154,351.0,2047.0,2048.0,0.0,0.0,4.0,4.0,4.0,4.0,0.0,4.0,4.0,4.0,4.0,0.0,4.0,4.0,4.0,4.0,4.0,4.0
82.0,0.0,4171.794871794873,4132.8205128205145,4155.897435897437,4189.23076923077,4171.282051282053,4199.487179487181,4194.3589743589755,4200.512820512822,4186.153846153848,4184.615384615386,4182.564102564104,4195.384615384617,4179.487179487181,4174.871794871797,866.0,2047.0,2048.0,0.0,0.0,4.0,4.0,4.0,4.0,0.0,4.0,4.0,4.0,4.0,0.0,4.0,4.0,4.0,4.0,4.0,4.0
83.0,0.0,4173.846153846155,4133.846153846155,4104.102564102565,4189.743589743592,4157.435897435899,4202.051282051283,4178.46153846154,4207.179487179489,4189.23076923077,4185.128205128207,4192.8205128205145,4194.3589743589755,4193.333333333335,4177.94871794872,837.0,2047.0,2048.0,0.0,0.0,4.0,4.0,4.0,4.0,0.0,4.0,4.0,4.0,4.0,0.0,4.0,4.0,4.0,4.0,4.0,4.0
84.0,0.0,4171.282051282053,4130.256410256412,4163.076923076925,4185.641025641027,4188.20512820513,4200.000000000002,4191.794871794873,4198.46153846154,4187.179487179489,4186.153846153848,4194.3589743589755,4200.512820512822,4198.46153846154,4181.0256410256425,851.0,2047.0,2048.0,0.0,0.0,4.0,4.0,4.0,4.0,0.0,4.0,4.0,4.0,4.0,0.0,4.0,4.0,4.0,4.0,4.0,4.0
85.0,0.0,4163.076923076925,4133.333333333335,4243.076923076925,4183.589743589745,4211.794871794873,4197.435897435899,4215.384615384617,4186.666666666668,4183.589743589745,4185.641025641027,4184.102564102565,4195.384615384617,4187.692307692309,4178.97435897436,351.0,2047.0,2048.0,0.0,0.0,4.0,4.0,4.0,4.0,0.0,4.0,4.0,4.0,4.0,0.0,4.0,4.0,4.0,4.0,4.0,4.0
86.0,0.0,4158.97435897436,4136.410256410258,4217.435897435899,4185.128205128207,4195.384615384617,4201.0256410256425,4211.794871794873,4192.8205128205145,4182.051282051283,4184.615384615386,4181.0256410256425,4195.897435897437,4178.46153846154,4172.8205128205145,866.0,2047.0,2048.0,0.0,0.0,4.0,4.0,4.0,4.0,0.0,4.0,4.0,4.0,4.0,0.0,4.0,4.0,4.0,4.0,4.0,4.0
87.0,0.0,4164.102564102565,4128.20512820513,4135.897435897437,4184.102564102565,4166.666666666668,4202.564102564104,4188.20512820513,4202.564102564104,4185.128205128207,4184.102564102565,4190.769230769232,4199.487179487181,4187.692307692309,4178.97435897436,837.0,2047.0,2048.0,0.0,0.0,4.0,4.0,4.0,4.0,0.0,4.0,4.0,4.0,4.0,0.0,4.0,4.0,4.0,4.0,4.0,4.0
88.0,0.0,4172.8205128205145,4134.3589743589755,4126.153846153848,4188.20512820513,4169.23076923077,4199.487179487181,4181.0256410256425,4200.512820512822,4191.282051282053,4184.615384615386,4205.641025641027,4202.564102564104,4207.692307692309,4196.410256410258,851.0,2047.0,2048.0,0.0,0.0,4.0,4.0,4.0,4.0,0.0,4.0,4.0,4.0,4.0,0.0,4.0,4.0,4.0,4.0,4.0,4.0
89.0,0.0,4169.743589743592,4142.051282051283,4185.641025641027,4190.256410256412,4194.871794871797,4203.076923076925,4197.94871794872,4198.97435897436,4191.794871794873,4185.128205128207,4203.076923076925,4206.153846153848,4205.128205128207,4196.410256410258,351.0,2047.0,2048.0,0.0,0.0,4.0,4.0,4.0,4.0,0.0,4.0,4.0,4.0,4.0,0.0,4.0,4.0,4.0,4.0,4.0,4.0
90.0,0.0,4155.384615384617,4129.743589743592,4205.128205128207,4181.538461538463,4196.923076923078,4208.71794871795,4209.23076923077,4196.410256410258,4180.512820512822,4184.615384615386,4182.051282051283,4194.3589743589755,4181.0256410256425,4173.846153846155,866.0,2047.0,2048.0,0.0,0.0,4.0,4.0,4.0,4.0,0.0,4.0,4.0,4.0,4.0,0.0,4.0,4.0,4.0,4.0,4.0,4.0
91.0,0.0,4157.94871794872,4130.769230769232,4174.871794871797,4182.564102564104,4182.564102564104,4204.615384615386,4197.435897435899,4185.128205128207,4177.435897435899,4184.102564102565,4176.410256410258,4194.871794871797,4176.923076923078,4170.256410256412,837.0,2047.0,2048.0,0.0,0.0,4.0,4.0,4.0,4.0,0.0,4.0,4.0,4.0,4.0,0.0,4.0,4.0,4.0,4.0,4.0,4.0
92.0,0.0,4167.179487179489,4137.435897435899,4160.512820512822,4187.179487179489,4180.512820512822,4201.0256410256425,4192.8205128205145,4192.8205128205145,4190.256410256412,4186.666666666668,4190.256410256412,4200.512820512822,4196.410256410258,4182.564102564104,851.0,2047.0,2048.0,0.0,0.0,4.0,4.0,4.0,4.0,0.0,4.0,4.0,4.0,4.0,0.0,4.0,4.0,4.0,4.0,4.0,4.0
93.0,0.0,4164.615384615386,4126.666666666668,4183.589743589745,4180.000000000002,4190.769230769232,4202.051282051283,4211.282051282053,4208.20512820513,4195.897435897437,4187.692307692309,4192.8205128205145,4197.435897435899,4203.589743589745,4186.153846153848,351.0,2047.0,2048.0,0.0,0.0,4.0,4.0,4.0,4.0,0.0,4.0,4.0,4.0,4.0,0.0,4.0,4.0,4.0,4.0,4.0,4.0
94.0,0.0,4167.179487179489,4124.102564102565,4184.615384615386,4178.97435897436,4187.179487179489,4193.333333333335,4197.94871794872,4192.307692307694,4186.153846153848,4185.641025641027,4191.794871794873,4202.564102564104,4199.487179487181,4186.666666666668,866.0,2047.0,2048.0,0.0,0.0,4.0,4.0,4.0,4.0,0.0,4.0,4.0,4.0,4.0,0.0,4.0,4.0,4.0,4.0,4.0,4.0
95.0,0.0,4177.435897435899,4144.102564102565,4128.71794871795,4190.769230769232,4163.076923076925,4188.71794871795,4162.564102564104,4186.153846153848,4186.666666666668,4184.615384615386,4205.641025641027,4198.97435897436,4202.564102564104,4194.871794871797,837.0,2047.0,2048.0,0.0,0.0,4.0,4.0,4.0,4.0,0.0,4.0,4.0,4.0,4.0,0.0,4.0,4.0,4.0,4.0,4.0,4.0
96.0,0.0,4183.589743589745,4156.923076923078,4133.846153846155,4194.871794871797,4168.20512820513,4201.538461538463,4182.051282051283,4205.128205128207,4194.871794871797,4185.128205128207,4211.282051282053,4199.487179487181,4205.641025641027,4205.128205128207,851.0,2047.0,2048.0,0.0,0.0,4.0,4.0,4.0,4.0,0.0,4.0,4.0,4.0,4.0,0.0,4.0,4.0,4.0,4.0,4.0,4.0
97.0,0.0,4185.128205128207,4156.410256410258,4236.923076923078,4193.846153846155,4209.23076923077,4206.666666666668,4223.589743589745,4196.923076923078,4186.153846153848,4184.615384615386,4202.051282051283,4207.692307692309,4200.512820512822,4204.102564102565,351.0,2047.0,2048.0,0.0,0.0,4.0,4.0,4.0,4.0,0.0,4.0,4.0,4.0,4.0,0.0,4.0,4.0,4.0,4.0,4.0,4.0
98.0,0.0,4188.71794871795,4156.410256410258,4286.153846153848,4196.410256410258,4220.512820512822,4195.897435897437,4220.512820512822,4184.615384615386,4180.512820512822,4185.641025641027,4198.46153846154,4205.641025641027,4198.46153846154,4198.97435897436,866.0,2047.0,2048.0,0.0,0.0,4.0,4.0,4.0,4.0,0.0,4.0,4.0,4.0,4.0,0.0,4.0,4.0,4.0,4.0,4.0,4.0
99.0,0.0,4190.769230769232,4156.410256410258,4205.641025641027,4195.897435897437,4181.0256410256425,4192.307692307694,4191.282051282053,4201.538461538463,4192.8205128205145,4187.692307692309,4205.128205128207,4207.179487179489,4206.666666666668,4203.076923076925,837.0,2047.0,2048.0,0.0,0.0,4.0,4.0,4.0,4.0,0.0,4.0,4.0,4.0,4.0,0.0,4.0,4.0,4.0,4.0,4.0,4.0
100.0,0.0,4194.3589743589755,4162.051282051283,4102.051282051283,4198.46153846154,4143.076923076925,4189.743589743592,4163.589743589745,4202.564102564104,4194.3589743589755,4186.666666666668,4208.71794871795,4203.589743589745,4215.897435897437,4212.307692307694,851.0,2047.0,2048.0,0.0,0.0,4.0,4.0,4.0,4.0,0.0,4.0,4.0,4.0,4.0,0.0,4.0,4.0,4.0,4.0,4.0,4.0
101.0,0.0,4198.46153846154,4169.743589743592,4122.564102564104,4206.666666666668,4164.615384615386,4184.615384615386,4165.641025641027,4183.589743589745,4183.589743589745,4183.589743589745,4205.128205128207,4206.153846153848,4216.923076923078,4208.71794871795,351.0,2047.0,2048.0,0.0,0.0,4.0,4.0,4.0,4.0,0.0,4.0,4.0,4.0,4.0,0.0,4.0,4.0,4.0,4.0,4.0,4.0
102.0,0.0,4193.333333333335,4166.153846153848,4237.435897435899,4203.076923076925,4211.794871794873,4192.8205128205145,4212.307692307694,4187.692307692309,4186.666666666668,4184.102564102565,4206.153846153848,4210.769230769232,4212.307692307694,4203.589743589745,866.0,2047.0,2048.0,0.0,0.0,4.0,4.0,4.0,4.0,0.0,4.0,4.0,4.0,4.0,0.0,4.0,4.0,4.0,4.0,4.0,4.0
103.0,0.0,4187.692307692309,4164.102564102565,4282.051282051283,4198.97435897436,4215.384615384617,4202.051282051283,4234.3589743589755,4200.512820512822,4192.307692307694,4186.153846153848,4215.384615384617,4206.153846153848,4216.410256410258,4208.20512820513,837.0,2047.0,2048.0,0.0,0.0,4.0,4.0,4.0,4.0,0.0,4.0,4.0,4.0,4.0,0.0,4.0,4.0,4.0,4.0,4.0,4.0
104.0,0.0,4198.97435897436,4174.871794871797,4212.307692307694,4213.333333333335,4182.051282051283,4203.589743589745,4199.487179487181,4200.000000000002,4188.20512820513,4185.641025641027,4221.0256410256425,4214.871794871797,4226.153846153848,4217.94871794872,851.0,2047.0,2048.0,0.0,0.0,4.0,4.0,4.0,4.0,0.0,4.0,4.0,4.0,4.0,0.0,4.0,4.0,4.0,4.0,4.0,4.0
105.0,0.0,4198.46153846154,4172.8205128205145,4130.256410256412,4215.897435897437,4158.46153846154,4197.94871794872,4172.307692307694,4192.307692307694,4184.102564102565,4184.102564102565,4210.769230769232,4211.794871794873,4225.128205128207,4211.794871794873,351.0,2047.0,2048.0,0.0,0.0,4.0,4.0,4.0,4.0,0.0,4.0,4.0,4.0,4.0,0.0,4.0,4.0,4.0,4.0,4.0,4.0
106.0,0.0,4180.512820512822,4156.923076923078,4143.076923076925,4199.487179487181,4174.3589743589755,4191.794871794873,4183.076923076925,4187.179487179489,4184.615384615386,4185.641025641027,4195.897435897437,4202.051282051283,4209.743589743592,4192.307692307694,866.0,2047.0,2048.0,0.0,0.0,4.0,4.0,4.0,4.0,0.0,4.0,4.0,4.0,4.0,0.0,4.0,4.0,4.0,4.0,4.0,4.0
107.0,0.0,4176.410256410258,4157.94871794872,4216.410256410258,4196.923076923078,4201.538461538463,4195.897435897437,4203.076923076925,4188.20512820513,4185.641025641027,4186.666666666668,4193.846153846155,4206.153846153848,4201.538461538463,4189.743589743592,837.0,2047.0,2048.0,0.0,0.0,4.0,4.0,4.0,4.0,0.0,4.0,4.0,4.0,4.0,0.0,4.0,4.0,4.0,4.0,4.0,4.0
108.0,0.0,4182.051282051283,4170.256410256412,4237.435897435899,4205.128205128207,4202.051282051283,4198.97435897436,4209.743589743592,4188.20512820513,4184.102564102565,4185.128205128207,4196.410256410258,4204.102564102565,4209.743589743592,4196.410256410258,851.0,2047.0,2048.0,0.0,0.0,4.0,4.0,4.0,4.0,0.0,4.0,4.0,4.0,4.0,0.0,4.0,4.0,4.0,4.0,4.0,4.0
109.0,0.0,4187.179487179489,4173.333333333335,4185.128205128207,4203.589743589745,4180.512820512822,4192.307692307694,4192.307692307694,4190.769230769232,4183.076923076925,4184.615384615386,4198.46153846154,4205.641025641027,4216.923076923078,4197.435897435899,351.0,2047.0,2048.0,0.0,0.0,4.0,4.0,4.0,4.0,0.0,4.0,4.0,4.0,4.0,0.0,4.0,4.0,4.0,4.0,4.0,4.0
110.0,0.0,4188.71794871795,4167.179487179489,4142.564102564104,4201.538461538463,4164.102564102565,4193.333333333335,4179.487179487181,4201.538461538463,4189.23076923077,4184.615384615386,4204.102564102565,4207.179487179489,4216.410256410258,4194.871794871797,866.0,2047.0,2048.0,0.0,0.0,4.0,4.0,4.0,4.0,0.0,4.0,4.0,4.0,4.0,0.0,4.0,4.0,4.0,4.0,4.0,4.0
111.0,0.0,4192.307692307694,4166.153846153848,4202.051282051283,4210.769230769232,4189.23076923077,4203.076923076925,4195.897435897437,4203.076923076925,4191.794871794873,4183.589743589745,4208.71794871795,4210.256410256412,4215.384615384617,4200.512820512822,837.0,2047.0,2048.0,0.0,0.0,4.0,4.0,4.0,4.0,0.0,4.0,4.0,4.0,4.0,0.0,4.0,4.0,4.0,4.0,4.0,4.0
112.0,0.0,4198.46153846154,4172.307692307694,4274.871794871797,4218.97435897436,4217.94871794872,4200.512820512822,4211.282051282053,4196.410256410258,4188.71794871795,4184.615384615386,4207.692307692309,4211.794871794873,4219.487179487181,4208.20512820513,851.0,2047.0,2048.0,0.0,0.0,4.0,4.0,4.0,4.0,0.0,4.0,4.0,4.0,4.0,0.0,4.0,4.0,4.0,4.0,4.0,4.0
113.0,0.0,4196.410256410258,4165.641025641027,4209.23076923077,4211.794871794873,4186.666666666668,4199.487179487181,4200.000000000002,4204.102564102565,4190.256410256412,4186.153846153848,4201.0256410256425,4204.615384615386,4216.410256410258,4207.179487179489,351.0,2047.0,2048.0,0.0,0.0,4.0,4.0,4.0,4.0,0.0,4.0,4.0,4.0,4.0,0.0,4.0,4.0,4.0,4.0,4.0,4.0
114.0,0.0,4195.897435897437,4152.8205128205145,4097.94871794872,4201.538461538463,4145.641025641027,4207.692307692309,4180.512820512822,4215.384615384617,4192.8205128205145,4185.641025641027,4200.000000000002,4210.256410256412,4207.692307692309,4207.179487179489,866.0,2047.0,2048.0,0.0,0.0,4.0,4.0,4.0,4.0,0.0,4.0,4.0,4.0,4.0,0.0,4.0,4.0,4.0,4.0,4.0,4.0
115.0,0.0,4202.564102564104,4154.871794871797,4134.871794871797,4203.076923076925,4166.666666666668,4204.615384615386,4191.282051282053,4217.435897435899,4197.435897435899,4183.589743589745,4211.282051282053,4213.333333333335,4213.333333333335,4212.8205128205145,837.0,2047.0,2048.0,0.0,0.0,4.0,4.0,4.0,4.0,0.0,4.0,4.0,4.0,4.0,0.0,4.0,4.0,4.0,4.0,4.0,4.0
116.0,0.0,4209.743589743592,4168.71794871795,4270.256410256412,4207.692307692309,4220.512820512822,4197.435897435899,4227.179487179489,4215.384615384617,4197.94871794872,4183.589743589745,4215.897435897437,4210.769230769232,4224.102564102565,4219.487179487181,851.0,2047.0,2048.0,0.0,0.0,4.0,4.0,4.0,4.0,0.0,4.0,4.0,4.0,4.0,0.0,4.0,4.0,4.0,4.0,4.0,4.0
117.0,0.0,4202.051282051283,4168.71794871795,4286.666666666668,4204.615384615386,4217.94871794872,4197.435897435899,4226.666666666668,4207.179487179489,4187.179487179489,4185.641025641027,4208.20512820513,4214.871794871797,4215.384615384617,4217.435897435899,351.0,2047.0,2048.0,0.0,0.0,4.0,4.0,4.0,4.0,0.0,4.0,4.0,4.0,4.0,0.0,4.0,4.0,4.0,4.0,4.0,4.0
118.0,0.0,4191.794871794873,4158.46153846154,4164.615384615386,4198.46153846154,4164.102564102565,4196.923076923078,4180.512820512822,4207.692307692309,4188.20512820513,4186.666666666668,4209.23076923077,4208.71794871795,4205.128205128207,4211.282051282053,866.0,2047.0,2048.0,0.0,0.0,4.0,4.0,4.0,4.0,0.0,4.0,4.0,4.0,4.0,0.0,4.0,4.0,4.0,4.0,4.0,4.0
119.0,0.0,4201.538461538463,4164.102564102565,4117.94871794872,4203.076923076925,4155.384615384617,4195.897435897437,4162.564102564104,4214.871794871797,4198.97435897436,4185.641025641027,4213.846153846155,4210.769230769232,4215.384615384617,4212.307692307694,837.0,2047.0,2048.0,0.0,0.0,4.0,4.0,4.0,4.0,0.0,4.0,4.0,4.0,4.0,0.0,4.0,4.0,4.0,4.0,4.0,4.0
120.0,0.0,4208.20512820513,4171.282051282053,4209.23076923077,4210.256410256412,4198.46153846154,4197.94871794872,4201.538461538463,4210.256410256412,4192.8205128205145,4185.128205128207,4204.615384615386,4214.3589743589755,4218.46153846154,4212.307692307694,851.0,2047.0,2048.0,0.0,0.0,4.0,4.0,4.0,4.0,0.0,4.0,4.0,4.0,4.0,0.0,4.0,4.0,4.0,4.0,4.0,4.0
121.0,0.0,4202.564102564104,4162.564102564104,4274.871794871797,4207.179487179489,4217.435897435899,4203.076923076925,4232.8205128205145,4206.153846153848,4186.153846153848,4186.666666666668,4203.076923076925,4210.256410256412,4210.769230769232,4206.153846153848,351.0,2047.0,2048.0,0.0,0.0,4.0,4.0,4.0,4.0,0.0,4.0,4.0,4.0,4.0,0.0,4.0,4.0,4.0,4.0,4.0,4.0
122.0,0.0,4199.487179487181,4156.410256410258,4212.8205128205145,4202.564102564104,4185.128205128207,4205.128205128207,4206.666666666668,4209.23076923077,4195.384615384617,4186.666666666668,4216.923076923078,4212.307692307694,4214.871794871797,4208.20512820513,866.0,2047.0,2048.0,0.0,0.0,4.0,4.0,4.0,4.0,0.0,4.0,4.0,4.0,4.0,0.0,4.0,4.0,4.0,4.0,4.0,4.0
123.0,0.0,4200.512820512822,4165.641025641027,4112.8205128205145,4203.076923076925,4151.282051282053,4201.0256410256425,4164.615384615386,4207.179487179489,4199.487179487181,4185.128205128207,4216.410256410258,4208.20512820513,4220.000000000002,4212.8205128205145,837.0,2047.0,2048.0,0.0,0.0,4.0,4.0,4.0,4.0,0.0,4.0,4.0,4.0,4.0,0.0,4.0,4.0,4.0,4.0,4.0,4.0
124.0,0.0,4202.564102564104,4171.282051282053,4144.102564102565,4202.051282051283,4175.384615384617,4198.46153846154,4182.051282051283,4206.666666666668,4195.384615384617,4184.615384615386,4205.128205128207,4210.256410256412,4213.846153846155,4209.743589743592,851.0,2047.0,2048.0,0.0,0.0,4.0,4.0,4.0,4.0,0.0,4.0,4.0,4.0,4.0,0.0,4.0,4.0,4.0,4.0,4.0,4.0
125.0,0.0,4206.153846153848,4167.179487179489,4262.564102564104,4205.128205128207,4218.97435897436,4201.0256410256425,4232.8205128205145,4205.128205128207,4191.282051282053,4184.615384615386,4208.20512820513,4211.282051282053,4213.333333333335,4206.153846153848,351.0,2047.0,2048.0,0.0,0.0,4.0,4.0,4.0,4.0,0.0,4.0,4.0,4.0,4.0,0.0,4.0,4.0,4.0,4.0,4.0,4.0
126.0,0.0,4210.769230769232,4176.410256410258,4285.641025641027,4217.435897435899,4212.307692307694,4203.076923076925,4234.3589743589755,4198.46153846154,4189.23076923077,4185.641025641027,4211.282051282053,4207.179487179489,4218.46153846154,4208.71794871795,866.0,2047.0,2048.0,0.0,0.0,4.0,4.0,4.0,4.0,0.0,4.0,4.0,4.0,4.0,0.0,4.0,4.0,4.0,4.0,4.0,4.0
127.0,0.0,4212.8205128205145,4181.538461538463,4187.692307692309,4217.94871794872,4169.743589743592,4203.076923076925,4196.923076923078,4205.128205128207,4198.46153846154,4186.153846153848,4205.641025641027,4212.8205128205145,4217.435897435899,4214.871794871797,837.0,2047.0,2048.0,0.0,0.0,4.0,4.0,4.0,4.0,0.0,4.0,4.0,4.0,4.0,0.0,4.0,4.0,4.0,4.0,4.0,4.0
128.0,0.0,4208.20512820513,4168.71794871795,4116.923076923078,4209.23076923077,4154.3589743589755,4201.0256410256425,4179.487179487181,4211.794871794873,4201.0256410256425,4184.615384615386,4200.512820512822,4206.666666666668,4211.794871794873,4210.256410256412,851.0,2047.0,2048.0,0.0,0.0,4.0,4.0,4.0,4.0,0.0,4.0,4.0,4.0,4.0,0.0,4.0,4.0,4.0,4.0,4.0,4.0
0.0,0.0,4208.20512820513,4174.3589743589755,4185.641025641027,4210.769230769232,4187.179487179489,4197.435897435899,4193.846153846155,4197.94871794872,4186.666666666668,4184.102564102565,4198.97435897436,4205.641025641027,4203.589743589745,4201.0256410256425,686.0,2047.0,2048.0,0.0,0.0,4.0,4.0,4.0,4.0,0.0,4.0,4.0,4.0,4.0,0.0,4.0,4.0,4.0,4.0,4.0,4.0
1.0,0.0,4212.8205128205145,4187.179487179489,4271.794871794873,4215.897435897437,4211.282051282053,4198.46153846154,4216.923076923078,4193.846153846155,4182.564102564104,4185.641025641027,4198.46153846154,4211.282051282053,4202.564102564104,4202.051282051283,829.0,2047.0,2048.0,0.0,0.0,4.0,4.0,4.0,4.0,0.0,4.0,4.0,4.0,4.0,0.0,4.0,4.0,4.0,4.0,4.0,4.0
2.0,0.0,4207.692307692309,4176.410256410258,4247.179487179489,4214.871794871797,4195.897435897437,4203.589743589745,4220.000000000002,4204.102564102565,4193.846153846155,4185.641025641027,4201.0256410256425,4208.71794871795,4212.307692307694,4208.20512820513,804.0,2047.0,2048.0,0.0,0.0,4.0,4.0,4.0,4.0,0.0,4.0,4.0,4.0,4.0,0.0,4.0,4.0,4.0,4.0,4.0,4.0
3.0,0.0,4209.23076923077,4168.20512820513,4172.8205128205145,4215.384615384617,4172.8205128205145,4202.564102564104,4193.333333333335,4204.615384615386,4200.000000000002,4185.128205128207,4205.128205128207,4213.333333333335,4218.46153846154,4211.282051282053,796.0,2047.0,2048.0,0.0,0.0,4.0,4.0,4.0,4.0,0.0,4.0,4.0,4.0,4.0,0.0,4.0,4.0,4.0,4.0,4.0,4.0
4.0,0.0,4217.435897435899,4182.564102564104,4134.3589743589755,4216.410256410258,4158.97435897436,4197.435897435899,4168.71794871795,4198.97435897436,4198.46153846154,4185.641025641027,4208.71794871795,4211.794871794873,4215.897435897437,4212.307692307694,0.0,2047.0,2048.0,0.0,0.0,4.0,4.0,4.0,4.0,0.0,4.0,4.0,4.0,4.0,0.0,4.0,4.0,4.0,4.0,4.0,4.0
5.0,0.0,4213.333333333335,4191.794871794873,4182.051282051283,4214.871794871797,4180.000000000002,4200.000000000002,4188.20512820513,4201.538461538463,4196.410256410258,4185.128205128207,4213.333333333335,4212.8205128205145,4212.307692307694,4214.871794871797,783.0,2047.0,2048.0,0.0,0.0,4.0,4.0,4.0,4.0,0.0,4.0,4.0,4.0,4.0,0.0,4.0,4.0,4.0,4.0,4.0,4.0
6.0,0.0,4200.512820512822,4183.076923076925,4272.307692307694,4211.794871794873,4220.000000000002,4204.615384615386,4230.769230769232,4202.564102564104,4197.94871794872,4185.128205128207,4208.20512820513,4213.333333333335,4206.153846153848,4203.589743589745,803.0,2047.0,2048.0,0.0,0.0,4.0,4.0,4.0,4.0,0.0,4.0,4.0,4.0,4.0,0.0,4.0,4.0,4.0,4.0,4.0,4.0
7.0,0.0,4195.897435897437,4171.794871794873,4276.923076923078,4211.794871794873,4213.846153846155,4202.564102564104,4235.384615384617,4202.051282051283,4200.000000000002,4185.128205128207,4202.564102564104,4206.153846153848,4206.153846153848,4193.846153846155,820.0,2047.0,2048.0,0.0,0.0,4.0,4.0,4.0,4.0,0.0,4.0,4.0,4.0,4.0,0.0,4.0,4.0,4.0,4.0,4.0,4.0
8.0,0.0,4205.641025641027,4170.769230769232,4162.564102564104,4219.487179487181,4158.46153846154,4204.615384615386,4188.71794871795,4207.692307692309,4202.051282051283,4184.615384615386,4215.384615384617,4212.8205128205145,4221.538461538463,4210.256410256412,649.0,2047.0,2048.0,0.0,0.0,4.0,4.0,4.0,4.0,0.0,4.0,4.0,4.0,4.0,0.0,4.0,4.0,4.0,4.0,4.0,4.0
9.0,0.0,4204.102564102565,4172.307692307694,4083.589743589745,4218.46153846154,4132.307692307694,4212.8205128205145,4168.20512820513,4216.923076923078,4204.102564102565,4185.128205128207,4220.000000000002,4212.307692307694,4226.666666666668,4218.97435897436,0.0,2047.0,2048.0,0.0,0.0,4.0,4.0,4.0,4.0,0.0,4.0,4.0,4.0,4.0,0.0,4.0,4.0,4.0,4.0,4.0,4.0
10.0,0.0,4191.794871794873,4165.128205128207,4174.871794871797,4202.564102564104,4183.589743589745,4212.307692307694,4211.794871794873,4214.871794871797,4203.589743589745,4185.641025641027,4203.589743589745,4207.179487179489,4210.256410256412,4198.97435897436,866.0,2047.0,2048.0,0.0,0.0,4.0,4.0,4.0,4.0,0.0,4.0,4.0,4.0,4.0,0.0,4.0,4.0,4.0,4.0,4.0,4.0
11.0,0.0,4190.256410256412,4158.97435897436,4297.435897435899,4197.94871794872,4230.769230769232,4202.564102564104,4242.051282051283,4202.051282051283,4200.000000000002,4184.615384615386,4200.000000000002,4207.692307692309,4205.128205128207,4191.794871794873,831.0,2047.0,2048.0,0.0,0.0,4.0,4.0,4.0,4.0,0.0,4.0,4.0,4.0,4.0,0.0,4.0,4.0,4.0,4.0,4.0,4.0
12.0,0.0,4196.923076923078,4165.641025641027,4260.000000000002,4205.128205128207,4201.538461538463,4201.0256410256425,4222.564102564104,4197.94871794872,4197.435897435899,4184.615384615386,4213.333333333335,4206.153846153848,4218.46153846154,4205.128205128207,851.0,2047.0,2048.0,0.0,0.0,4.0,4.0,4.0,4.0,0.0,4.0,4.0,4.0,4.0,0.0,4.0,4.0,4.0,4.0,4.0,4.0
13.0,0.0,4198.46153846154,4170.769230769232,4140.512820512822,4206.666666666668,4153.846153846155,4207.179487179489,4195.897435897437,4210.256410256412,4199.487179487181,4185.641025641027,4217.94871794872,4215.384615384617,4221.538461538463,4210.256410256412,351.0,2047.0,2048.0,0.0,0.0,4.0,4.0,4.0,4.0,0.0,4.0,4.0,4.0,4.0,0.0,4.0,4.0,4.0,4.0,4.0,4.0
14.0,0.0,4196.410256410258,4168.71794871795,4120.512820512822,4209.743589743592,4153.846153846155,4204.615384615386,4186.666666666668,4219.487179487181,4203.589743589745,4185.128205128207,4215.384615384617,4216.410256410258,4214.3589743589755,4206.666666666668,866.0,2047.0,2048.0,0.0,0.0,4.0,4.0,4.0,4.0,0.0,4.0,4.0,4.0,4.0,0.0,4.0,4.0,4.0,4.0,4.0,4.0
15.0,0.0,4199.487179487181,4171.794871794873,4208.71794871795,4214.871794871797,4192.8205128205145,4200.000000000002,4194.3589743589755,4212.307692307694,4204.102564102565,4185.641025641027,4210.769230769232,4211.794871794873,4215.384615384617,4206.666666666668,831.0,2047.0,2048.0,0.0,0.0,4.0,4.0,4.0,4.0,0.0,4.0,4.0,4.0,4.0,0.0,4.0,4.0,4.0,4.0,4.0,4.0
16.0,0.0,4196.410256410258,4173.846153846155,4271.794871794873,4207.692307692309,4214.871794871797,4201.538461538463,4216.923076923078,4202.564102564104,4202.564102564104,4186.153846153848,4204.615384615386,4212.307692307694,4220.000000000002,4201.0256410256425,0.0,2047.0,2048.0,0.0,0.0,4.0,4.0,4.0,4.0,0.0,4.0,4.0,4.0,4.0,0.0,4.0,4.0,4.0,4.0,4.0,4.0
17.0,0.0,4189.743589743592,4168.71794871795,4240.000000000002,4204.102564102565,4193.846153846155,4203.589743589745,4220.512820512822,4201.538461538463,4197.435897435899,4184.615384615386,4203.076923076925,4208.20512820513,4216.410256410258,4197.94871794872,0.0,2047.0,2048.0,0.0,0.0,4.0,4.0,4.0,4.0,0.0,4.0,4.0,4.0,4.0,0.0,4.0,4.0,4.0,4.0,4.0,4.0
18.0,0.0,4190.256410256412,4169.743589743592,4153.846153846155,4210.769230769232,4162.564102564104,4201.0256410256425,4183.076923076925,4200.512820512822,4194.871794871797,4184.615384615386,4203.076923076925,4212.307692307694,4204.615384615386,4202.051282051283,0.0,2047.0,2048.0,0.0,0.0,4.0,4.0,4.0,4.0,0.0,4.0,4.0,4.0,4.0,0.0,4.0,4.0,4.0,4.0,4.0,4.0
19.0,0.0,4189.743589743592,4168.71794871795,4099.487179487181,4206.153846153848,4153.333333333335,4200.512820512822,4161.538461538463,4201.538461538463,4200.000000000002,4185.641025641027,4201.538461538463,4211.282051282053,4201.538461538463,4200.512820512822,0.0,2047.0,2048.0,0.0,0.0,4.0,4.0,4.0,4.0,0.0,4.0,4.0,4.0,4.0,0.0,4.0,4.0,4.0,4.0,4.0,4.0
20.0,0.0,4187.179487179489,4158.46153846154,4158.97435897436,4196.923076923078,4185.128205128207,4202.564102564104,4196.410256410258,4196.410256410258,4196.410256410258,4184.615384615386,4200.512820512822,4207.179487179489,4203.076923076925,4193.846153846155,0.0,2047.0,2048.0,0.0,0.0,4.0,4.0,4.0,4.0,0.0,4.0,4.0,4.0,4.0,0.0,4.0,4.0,4.0,4.0,4.0,4.0
21.0,0.0,4179.487179487181,4154.871794871797,4266.153846153848,4197.435897435899,4222.051282051283,4201.538461538463,4234.871794871797,4187.179487179489,4183.076923076925,4185.128205128207,4192.8205128205145,4210.256410256412,4187.179487179489,4184.615384615386,0.0,2047.0,2048.0,0.0,0.0,4.0,4.0,4.0,4.0,0.0,4.0,4.0,4.0,4.0,0.0,4.0,4.0,4.0,4.0,4.0,4.0
22.0,0.0,4174.871794871797,4165.641025641027,4260.512820512822,4200.000000000002,4210.256410256412,4200.512820512822,4224.615384615386,4196.923076923078,4191.282051282053,4187.179487179489,4185.128205128207,4205.641025641027,4175.897435897437,4177.94871794872,0.0,2047.0,2048.0,0.0,0.0,4.0,4.0,4.0,4.0,0.0,4.0,4.0,4.0,4.0,0.0,4.0,4.0,4.0,4.0,4.0,4.0
23.0,0.0,4187.179487179489,4181.0256410256425,4161.538461538463,4200.512820512822,4169.743589743592,4201.538461538463,4184.102564102565,4205.128205128207,4201.538461538463,4185.641025641027,4184.615384615386,4207.179487179489,4182.051282051283,4184.102564102565,0.0,2047.0,2048.0,0.0,0.0,4.0,4.0,4.0,4.0,0.0,4.0,4.0,4.0,4.0,0.0,4.0,4.0,4.0,4.0,4.0,4.0
24.0,0.0,4194.871794871797,4190.769230769232,4112.307692307694,4203.589743589745,4154.871794871797,4198.97435897436,4164.102564102565,4184.102564102565,4188.20512820513,4183.589743589745,4179.487179487181,4203.076923076925,4183.076923076925,4187.692307692309,0.0,2047.0,2048.0,0.0,0.0,4.0,4.0,4.0,4.0,0.0,4.0,4.0,4.0,4.0,0.0,4.0,4.0,4.0,4.0,4.0,4.0
25.0,0.0,4194.3589743589755,4197.435897435899,4166.666666666668,4208.71794871795,4181.538461538463,4195.384615384617,4174.871794871797,4169.743589743592,4179.487179487181,4183.589743589745,4170.769230769232,4198.46153846154,4168.20512820513,4180.000000000002,0.0,2047.0,2048.0,0.0,0.0,4.0,4.0,4.0,4.0,0.0,4.0,4.0,4.0,4.0,0.0,4.0,4.0,4.0,4.0,4.0,4.0
26.0,0.0,4206.153846153848,4209.23076923077,4249.743589743592,4216.410256410258,4209.743589743592,4197.94871794872,4202.564102564104,4182.564102564104,4185.641025641027,4185.128205128207,4169.743589743592,4204.102564102565,4154.3589743589755,4176.410256410258,0.0,2047.0,2048.0,0.0,0.0,4.0,4.0,4.0,4.0,0.0,4.0,4.0,4.0,4.0,0.0,4.0,4.0,4.0,4.0,4.0,4.0
27.0,0.0,4211.794871794873,4218.46153846154,4250.769230769232,4228.20512820513,4196.410256410258,4201.538461538463,4217.435897435899,4187.692307692309,4185.641025641027,4185.128205128207,4170.769230769232,4198.46153846154,4155.384615384617,4182.051282051283,0.0,2047.0,2048.0,0.0,0.0,4.0,4.0,4.0,4.0,0.0,4.0,4.0,4.0,4.0,0.0,4.0,4.0,4.0,4.0,4.0,4.0
28.0,0.0,4207.692307692309,4218.46153846154,4190.256410256412,4232.307692307694,4173.333333333335,4202.051282051283,4200.512820512822,4184.102564102565,4186.153846153848,4184.102564102565,4170.256410256412,4203.589743589745,4161.538461538463,4187.179487179489,0.0,2047.0,2048.0,0.0,0.0,4.0,4.0,4.0,4.0,0.0,4.0,4.0,4.0,4.0,0.0,4.0,4.0,4.0,4.0,4.0,4.0
29.0,0.0,4208.20512820513,4213.846153846155,4154.3589743589755,4221.0256410256425,4170.769230769232,4200.512820512822,4178.46153846154,4190.256410256412,4191.282051282053,4185.641025641027,4173.333333333335,4208.71794871795,4163.589743589745,4187.179487179489,0.0,2047.0,2048.0,0.0,0.0,4.0,4.0,4.0,4.0,0.0,4.0,4.0,4.0,4.0,0.0,4.0,4.0,4.0,4.0,4.0,4.0
30.0,0.0,4206.153846153848,4215.897435897437,4164.102564102565,4212.307692307694,4180.000000000002,4197.94871794872,4182.051282051283,4197.94871794872,4193.333333333335,4187.179487179489,4172.8205128205145,4201.0256410256425,4154.871794871797,4183.076923076925,0.0,2047.0,2048.0,0.0,0.0,4.0,4.0,4.0,4.0,0.0,4.0,4.0,4.0,4.0,0.0,4.0,4.0,4.0,4.0,4.0,4.0
31.0,0.0,4202.564102564104,4219.487179487181,4206.666666666668,4217.94871794872,4189.23076923077,4197.435897435899,4204.102564102565,4201.0256410256425,4197.94871794872,4183.589743589745,4170.256410256412,4204.102564102565,4152.307692307694,4182.564102564104,0.0,2047.0,2048.0,0.0,0.0,4.0,4.0,4.0,4.0,0.0,4.0,4.0,4.0,4.0,0.0,4.0,4.0,4.0,4.0,4.0,4.0
32.0,0.0,4203.076923076925,4214.871794871797,4254.3589743589755,4217.435897435899,4204.102564102565,4197.94871794872,4219.487179487181,4195.897435897437,4198.97435897436,4183.076923076925,4173.846153846155,4204.615384615386,4160.512820512822,4182.051282051283,0.0,2047.0,2048.0,0.0,0.0,4.0,4.0,4.0,4.0,0.0,4.0,4.0,4.0,4.0,0.0,4.0,4.0,4.0,4.0,4.0,4.0
33.0,0.0,4208.20512820513,4208.71794871795,4263.589743589745,4215.897435897437,4208.71794871795,4199.487179487181,4217.435897435899,4190.256410256412,4191.794871794873,4189.23076923077,4174.871794871797,4208.71794871795,4169.23076923077,4184.102564102565,0.0,2047.0,2048.0,0.0,0.0,4.0,4.0,4.0,4.0,0.0,4.0,4.0,4.0,4.0,0.0,4.0,4.0,4.0,4.0,4.0,4.0
34.0,0.0,4206.666666666668,4208.20512820513,4188.20512820513,4225.128205128207,4170.256410256412,4199.487179487181,4190.769230769232,4197.94871794872,4189.23076923077,4190.769230769232,4172.307692307694,4210.769230769232,4171.794871794873,4192.8205128205145,0.0,2047.0,2048.0,0.0,0.0,4.0,4.0,4.0,4.0,0.0,4.0,4.0,4.0,4.0,0.0,4.0,4.0,4.0,4.0,4.0,4.0
35.0,0.0,4195.384615384617,4204.615384615386,4096.923076923078,4223.589743589745,4138.97435897436,4197.94871794872,4161.0256410256425,4203.076923076925,4186.666666666668,4188.20512820513,4167.692307692309,4202.051282051283,4157.94871794872,4185.641025641027,0.0,2047.0,2048.0,0.0,0.0,4.0,4.0,4.0,4.0,0.0,4.0,4.0,4.0,4.0,0.0,4.0,4.0,4.0,4.0,4.0,4.0
36.0,0.0,4188.71794871795,4196.923076923078,4144.615384615386,4214.3589743589755,4174.3589743589755,4198.97435897436,4180.000000000002,4196.410256410258,4182.564102564104,4189.743589743592,4167.179487179489,4203.589743589745,4144.615384615386,4172.8205128205145,0.0,2047.0,2048.0,0.0,0.0,4.0,4.0,4.0,4.0,0.0,4.0,4.0,4.0,4.0,0.0,4.0,4.0,4.0,4.0,4.0,4.0
37.0,0.0,4192.8205128205145,4197.94871794872,4274.3589743589755,4212.8205128205145,4221.538461538463,4200.000000000002,4231.794871794873,4197.94871794872,4187.692307692309,4190.256410256412,4172.8205128205145,4205.128205128207,4154.871794871797,4178.97435897436,0.0,2047.0,2048.0,0.0,0.0,4.0,4.0,4.0,4.0,0.0,4.0,4.0,4.0,4.0,0.0,4.0,4.0,4.0,4.0,4.0,4.0
38.0,0.0,4196.410256410258,4202.051282051283,4288.20512820513,4213.846153846155,4212.307692307694,4193.846153846155,4237.435897435899,4207.179487179489,4190.769230769232,4185.128205128207,4172.8205128205145,4207.179487179489,4165.128205128207,4183.076923076925,0.0,2047.0,2048.0,0.0,0.0,4.0,4.0,4.0,4.0,0.0,4.0,4.0,4.0,4.0,0.0,4.0,4.0,4.0,4.0,4.0,4.0
39.0,0.0,4189.743589743592,4199.487179487181,4170.256410256412,4211.794871794873,4166.153846153848,4187.692307692309,4182.564102564104,4202.051282051283,4184.102564102565,4183.589743589745,4167.692307692309,4202.051282051283,4156.410256410258,4173.333333333335,0.0,2047.0,2048.0,0.0,0.0,4.0,4.0,4.0,4.0,0.0,4.0,4.0,4.0,4.0,0.0,4.0,4.0,4.0,4.0,4.0,4.0
40.0,0.0,4185.128205128207,4197.94871794872,4104.615384615386,4209.743589743592,4151.282051282053,4191.794871794873,4155.897435897437,4196.923076923078,4188.20512820513,4185.128205128207,4169.743589743592,4196.410256410258,4154.871794871797,4171.282051282053,0.0,2047.0,2048.0,0.0,0.0,4.0,4.0,4.0,4.0,0.0,4.0,4.0,4.0,4.0,0.0,4.0,4.0,4.0,4.0,4.0,4.0
41.0,0.0,4194.3589743589755,4203.589743589745,4182.564102564104,4212.307692307694,4186.153846153848,4200.000000000002,4189.743589743592,4205.128205128207,4194.871794871797,4185.128205128207,4175.384615384617,4207.692307692309,4164.615384615386,4183.076923076925,0.0,2047.0,2048.0,0.0,0.0,4.0,4.0,4.0,4.0,0.0,4.0,4.0,4.0,4.0,0.0,4.0,4.0,4.0,4.0,4.0,4.0
42.0,0.0,4202.564102564104,4210.256410256412,4267.179487179489,4216.410256410258,4210.769230769232,4203.076923076925,4224.102564102565,4206.666666666668,4190.769230769232,4185.128205128207,4176.923076923078,4207.692307692309,4165.641025641027,4187.179487179489,0.0,2047.0,2048.0,0.0,0.0,4.0,4.0,4.0,4.0,0.0,4.0,4.0,4.0,4.0,0.0,4.0,4.0,4.0,4.0,4.0,4.0
43.0,0.0,4201.538461538463,4211.794871794873,4259.487179487181,4217.94871794872,4200.512820512822,4202.051282051283,4221.538461538463,4200.000000000002,4191.282051282053,4184.615384615386,4182.051282051283,4206.666666666668,4170.769230769232,4189.23076923077,0.0,2047.0,2048.0,0.0,0.0,4.0,4.0,4.0,4.0,0.0,4.0,4.0,4.0,4.0,0.0,4.0,4.0,4.0,4.0,4.0,4.0
44.0,0.0,4194.871794871797,4203.589743589745,4195.897435897437,4216.410256410258,4175.384615384617,4199.487179487181,4195.897435897437,4201.538461538463,4194.3589743589755,4183.589743589745,4186.153846153848,4208.71794871795,4177.435897435899,4191.794871794873,0.0,2047.0,2048.0,0.0,0.0,4.0,4.0,4.0,4.0,0.0,4.0,4.0,4.0,4.0,0.0,4.0,4.0,4.0,4.0,4.0,4.0
45.0,0.0,4191.794871794873,4199.487179487181,4143.076923076925,4213.846153846155,4160.512820512822,4197.94871794872,4173.846153846155,4201.538461538463,4188.71794871795,4184.102564102565,4182.564102564104,4202.051282051283,4172.307692307694,4188.20512820513,0.0,2047.0,2048.0,0.0,0.0,4.0,4.0,4.0,4.0,0.0,4.0,4.0,4.0,4.0,0.0,4.0,4.0,4.0,4.0,4.0,4.0
46.0,0.0,4197.94871794872,4206.153846153848,4149.23076923077,4209.23076923077,4171.282051282053,4199.487179487181,4176.923076923078,4197.435897435899,4189.23076923077,4186.666666666668,4188.71794871795,4208.71794871795,4170.769230769232,4188.71794871795,0.0,2047.0,2048.0,0.0,0.0,4.0,4.0,4.0,4.0,0.0,4.0,4.0,4.0,4.0,0.0,4.0,4.0,4.0,4.0,4.0,4.0
47.0,0.0,4191.794871794873,4201.538461538463,4201.538461538463,4200.000000000002,4191.794871794873,4205.128205128207,4215.384615384617,4212.8205128205145,4200.512820512822,4185.641025641027,4186.666666666668,4204.615384615386,4164.102564102565,4181.538461538463,0.0,2047.0,2048.0,0.0,0.0,4.0,4.0,4.0,4.0,0.0,4.0,4.0,4.0,4.0,0.0,4.0,4.0,4.0,4.0,4.0,4.0
48.0,0.0,4184.102564102565,4197.94871794872,4251.794871794873,4202.051282051283,4209.23076923077,4207.692307692309,4244.102564102565,4224.102564102565,4202.051282051283,4184.102564102565,4169.743589743592,4197.435897435899,4148.71794871795,4171.282051282053,0.0,2047.0,2048.0,0.0,0.0,4.0,4.0,4.0,4.0,0.0,4.0,4.0,4.0,4.0,0.0,4.0,4.0,4.0,4.0,4.0,4.0
49.0,0.0,4195.897435897437,4215.897435897437,4238.97435897436,4213.333333333335,4196.923076923078,4201.538461538463,4216.923076923078,4205.128205128207,4196.923076923078,4185.128205128207,4171.794871794873,4204.615384615386,4156.923076923078,4176.410256410258,0.0,2047.0,2048.0,0.0,0.0,4.0,4.0,4.0,4.0,0.0,4.0,4.0,4.0,4.0,0.0,4.0,4.0,4.0,4.0,4.0,4.0
50.0,0.0,4201.538461538463,4221.0256410256425,4167.179487179489,4215.384615384617,4164.615384615386,4195.897435897437,4172.307692307694,4192.8205128205145,4198.97435897436,4185.641025641027,4187.179487179489,4203.076923076925,4174.871794871797,4187.179487179489,0.0,2047.0,2048.0,0.0,0.0,4.0,4.0,4.0,4.0,0.0,4.0,4.0,4.0,4.0,0.0,4.0,4.0,4.0,4.0,4.0,4.0
51.0,0.0,4196.410256410258,4214.3589743589755,4141.0256410256425,4210.769230769232,4163.076923076925,4196.923076923078,4170.256410256412,4202.564102564104,4198.97435897436,4185.128205128207,4188.20512820513,4204.615384615386,4172.307692307694,4186.666666666668,0.0,2047.0,2048.0,0.0,0.0,4.0,4.0,4.0,4.0,0.0,4.0,4.0,4.0,4.0,0.0,4.0,4.0,4.0,4.0,4.0,4.0
52.0,0.0,4197.94871794872,4223.589743589745,4195.897435897437,4213.846153846155,4190.769230769232,4198.46153846154,4198.97435897436,4202.051282051283,4190.769230769232,4185.641025641027,4185.128205128207,4206.666666666668,4173.846153846155,4182.564102564104,0.0,2047.0,2048.0,0.0,0.0,4.0,4.0,4.0,4.0,0.0,4.0,4.0,4.0,4.0,0.0,4.0,4.0,4.0,4.0,4.0,4.0
53.0,0.0,4197.435897435899,4228.71794871795,4244.102564102565,4215.897435897437,4207.179487179489,4198.46153846154,4209.23076923077,4192.307692307694,4184.615384615386,4185.128205128207,4186.153846153848,4205.641025641027,4176.923076923078,4181.538461538463,0.0,2047.0,2048.0,0.0,0.0,4.0,4.0,4.0,4.0,0.0,4.0,4.0,4.0,4.0,0.0,4.0,4.0,4.0,4.0,4.0,4.0
54.0,0.0,4189.743589743592,4218.46153846154,4221.538461538463,4215.897435897437,4192.8205128205145,4201.538461538463,4204.102564102565,4200.512820512822,4191.794871794873,4183.076923076925,4187.692307692309,4208.71794871795,4172.8205128205145,4182.051282051283,0.0,2047.0,2048.0,0.0,0.0,4.0,4.0,4.0,4.0,0.0,4.0,4.0,4.0,4.0,0.0,4.0,4.0,4.0,4.0,4.0,4.0
55.0,0.0,4195.897435897437,4225.641025641027,4176.410256410258,4221.0256410256425,4170.769230769232,4203.589743589745,4200.512820512822,4220.000000000002,4204.102564102565,4183.589743589745,4196.923076923078,4210.256410256412,4184.615384615386,4194.3589743589755,0.0,2047.0,2048.0,0.0,0.0,4.0,4.0,4.0,4.0,0.0,4.0,4.0,4.0,4.0,0.0,4.0,4.0,4.0,4.0,4.0,4.0
56.0,0.0,4211.282051282053,4242.564102564104,4168.20512820513,4224.102564102565,4168.71794871795,4202.051282051283,4187.179487179489,4220.000000000002,4206.666666666668,4186.153846153848,4207.179487179489,4219.487179487181,4200.000000000002,4208.20512820513,0.0,2047.0,2048.0,0.0,0.0,4.0,4.0,4.0,4.0,0.0,4.0,4.0,4.0,4.0,0.0,4.0,4.0,4.0,4.0,4.0,4.0
57.0,0.0,4209.743589743592,4240.512820512822,4182.564102564104,4221.538461538463,4181.538461538463,4201.0256410256425,4185.128205128207,4203.076923076925,4198.97435897436,4186.153846153848,4202.051282051283,4215.897435897437,4192.307692307694,4204.615384615386,0.0,2047.0,2048.0,0.0,0.0,4.0,4.0,4.0,4.0,0.0,4.0,4.0,4.0,4.0,0.0,4.0,4.0,4.0,4.0,4.0,4.0
58.0,0.0,4204.102564102565,4235.897435897437,4220.512820512822,4221.0256410256425,4198.97435897436,4197.435897435899,4209.23076923077,4202.564102564104,4198.46153846154,4185.641025641027,4192.307692307694,4206.666666666668,4180.512820512822,4191.794871794873,0.0,2047.0,2048.0,0.0,0.0,4.0,4.0,4.0,4.0,0.0,4.0,4.0,4.0,4.0,0.0,4.0,4.0,4.0,4.0,4.0,4.0
59.0,0.0,4203.076923076925,4231.282051282053,4252.307692307694,4216.923076923078,4204.102564102565,4189.743589743592,4213.846153846155,4204.102564102565,4200.000000000002,4185.641025641027,4186.666666666668,4207.179487179489,4181.0256410256425,4188.71794871795,0.0,2047.0,2048.0,0.0,0.0,4.0,4.0,4.0,4.0,0.0,4.0,4.0,4.0,4.0,0.0,4.0,4.0,4.0,4.0,4.0,4.0
60.0,0.0,4194.3589743589755,4222.051282051283,4203.589743589745,4206.153846153848,4180.512820512822,4184.615384615386,4179.487179487181,4187.692307692309,4186.666666666668,4185.128205128207,4183.589743589745,4200.000000000002,4182.564102564104,4189.23076923077,0.0,2047.0,2048.0,0.0,0.0,4.0,4.0,4.0,4.0,0.0,4.0,4.0,4.0,4.0,0.0,4.0,4.0,4.0,4.0,4.0,4.0
61.0,0.0,4189.23076923077,4220.000000000002,4126.666666666668,4203.589743589745,4158.46153846154,4186.153846153848,4156.923076923078,4185.641025641027,4182.051282051283,4184.615384615386,4183.589743589745,4201.538461538463,4182.564102564104,4189.743589743592,0.0,2047.0,2048.0,0.0,0.0,4.0,4.0,4.0,4.0,0.0,4.0,4.0,4.0,4.0,0.0,4.0,4.0,4.0,4.0,4.0,4.0
62.0,0.0,4193.846153846155,4217.94871794872,4131.794871794873,4206.666666666668,4167.692307692309,4186.153846153848,4171.794871794873,4204.102564102565,4198.46153846154,4185.128205128207,4193.333333333335,4204.102564102565,4191.282051282053,4194.3589743589755,0.0,2047.0,2048.0,0.0,0.0,4.0,4.0,4.0,4.0,0.0,4.0,4.0,4.0,4.0,0.0,4.0,4.0,4.0,4.0,4.0,4.0
63.0,0.0,4196.923076923078,4216.923076923078,4223.076923076925,4206.666666666668,4201.0256410256425,4183.589743589745,4198.46153846154,4202.564102564104,4198.97435897436,4185.128205128207,4198.97435897436,4203.589743589745,4200.512820512822,4196.923076923078,0.0,2047.0,2048.0,0.0,0.0,4.0,4.0,4.0,4.0,0.0,4.0,4.0,4.0,4.0,0.0,4.0,4.0,4.0,4.0,4.0,4.0
64.0,0.0,4198.46153846154,4227.179487179489,4273.846153846155,4207.179487179489,4213.333333333335,4184.615384615386,4204.102564102565,4184.615384615386,4182.051282051283,4185.128205128207,4192.307692307694,4211.282051282053,4198.46153846154,4191.282051282053,687.0,2047.0,2048.0,0.0,0.0,4.0,4.0,4.0,4.0,0.0,4.0,4.0,4.0,4.0,0.0,4.0,4.0,4.0,4.0,4.0,4.0
65.0,0.0,4195.384615384617,4233.846153846155,4204.615384615386,4205.641025641027,4180.512820512822,4181.538461538463,4175.897435897437,4182.051282051283,4182.051282051283,4186.153846153848,4186.153846153848,4206.153846153848,4187.692307692309,4185.641025641027,829.0,2047.0,2048.0,0.0,0.0,4.0,4.0,4.0,4.0,0.0,4.0,4.0,4.0,4.0,0.0,4.0,4.0,4.0,4.0,4.0,4.0
66.0,0.0,4190.769230769232,4221.0256410256425,4128.20512820513,4200.512820512822,4157.94871794872,4173.333333333335,4147.179487179489,4184.615384615386,4184.102564102565,4186.153846153848,4185.128205128207,4205.641025641027,4184.102564102565,4185.641025641027,804.0,2047.0,2048.0,0.0,0.0,4.0,4.0,4.0,4.0,0.0,4.0,4.0,4.0,4.0,0.0,4.0,4.0,4.0,4.0,4.0,4.0
67.0,0.0,4185.128205128207,4210.256410256412,4151.794871794873,4197.435897435899,4172.8205128205145,4174.871794871797,4159.487179487181,4181.538461538463,4177.435897435899,4185.128205128207,4183.589743589745,4204.102564102565,4187.179487179489,4184.615384615386,796.0,2047.0,2048.0,0.0,0.0,4.0,4.0,4.0,4.0,0.0,4.0,4.0,4.0,4.0,0.0,4.0,4.0,4.0,4.0,4.0,4.0
68.0,0.0,4182.564102564104,4218.97435897436,4221.538461538463,4202.051282051283,4199.487179487181,4183.076923076925,4191.794871794873,4181.538461538463,4177.94871794872,4184.615384615386,4184.615384615386,4200.512820512822,4187.179487179489,4184.615384615386,0.0,2047.0,2048.0,0.0,0.0,4.0,4.0,4.0,4.0,0.0,4.0,4.0,4.0,4.0,0.0,4.0,4.0,4.0,4.0,4.0,4.0
69.0,0.0,4187.179487179489,4223.589743589745,4238.97435897436,4204.615384615386,4205.128205128207,4185.641025641027,4203.589743589745,4184.102564102565,4184.102564102565,4185.128205128207,4185.641025641027,4205.128205128207,4186.666666666668,4186.153846153848,783.0,2047.0,2048.0,0.0,0.0,4.0,4.0,4.0,4.0,0.0,4.0,4.0,4.0,4.0,0.0,4.0,4.0,4.0,4.0,4.0,4.0
70.0,0.0,4187.179487179489,4214.871794871797,4174.3589743589755,4200.000000000002,4177.435897435899,4185.641025641027,4186.666666666668,4194.871794871797,4187.179487179489,4185.641025641027,4185.641025641027,4197.435897435899,4187.179487179489,4183.076923076925,803.0,2047.0,2048.0,0.0,0.0,4.0,4.0,4.0,4.0,0.0,4.0,4.0,4.0,4.0,0.0,4.0,4.0,4.0,4.0,4.0,4.0
71.0,0.0,4190.769230769232,4217.94871794872,4115.384615384617,4205.128205128207,4157.435897435899,4187.692307692309,4167.692307692309,4202.051282051283,4186.666666666668,4184.615384615386,4186.666666666668,4198.97435897436,4186.666666666668,4185.128205128207,819.0,2047.0,2048.0,0.0,0.0,4.0,4.0,4.0,4.0,0.0,4.0,4.0,4.0,4.0,0.0,4.0,4.0,4.0,4.0,4.0,4.0
72.0,0.0,4201.538461538463,4238.46153846154,4152.307692307694,4214.3589743589755,4174.3589743589755,4186.153846153848,4174.3589743589755,4185.641025641027,4183.076923076925,4185.128205128207,4185.128205128207,4205.641025641027,4183.589743589745,4186.666666666668,649.0,2047.0,2048.0,0.0,0.0,4.0,4.0,4.0,4.0,0.0,4.0,4.0,4.0,4.0,0.0,4.0,4.0,4.0,4.0,4.0,4.0
73.0,0.0,4201.0256410256425,4245.128205128207,4240.512820512822,4210.256410256412,4207.179487179489,4183.589743589745,4201.0256410256425,4172.307692307694,4181.0256410256425,4186.153846153848,4181.538461538463,4200.512820512822,4182.564102564104,4183.589743589745,0.0,2047.0,2048.0,0.0,0.0,4.0,4.0,4.0,4.0,0.0,4.0,4.0,4.0,4.0,0.0,4.0,4.0,4.0,4.0,4.0,4.0
74.0,0.0,4195.384615384617,4235.384615384617,4262.564102564104,4200.512820512822,4211.794871794873,4185.641025641027,4211.282051282053,4178.46153846154,4184.615384615386,4185.128205128207,4183.589743589745,4203.076923076925,4184.102564102565,4188.20512820513,865.0,2047.0,2048.0,0.0,0.0,4.0,4.0,4.0,4.0,0.0,4.0,4.0,4.0,4.0,0.0,4.0,4.0,4.0,4.0,4.0,4.0
75.0,0.0,4187.179487179489,4225.128205128207,4174.871794871797,4194.3589743589755,4175.384615384617,4182.051282051283,4184.102564102565,4183.589743589745,4186.153846153848,4184.102564102565,4179.487179487181,4200.000000000002,4177.435897435899,4185.128205128207,831.0,2047.0,2048.0,0.0,0.0,4.0,4.0,4.0,4.0,0.0,4.0,4.0,4.0,4.0,0.0,4.0,4.0,4.0,4.0,4.0,4.0
76.0,0.0,4184.102564102565,4225.128205128207,4102.564102564104,4188.20512820513,4156.923076923078,4172.8205128205145,4154.3589743589755,4180.512820512822,4184.102564102565,4185.128205128207,4172.307692307694,4198.97435897436,4168.71794871795,4172.307692307694,851.0,2047.0,2048.0,0.0,0.0,4.0,4.0,4.0,4.0,0.0,4.0,4.0,4.0,4.0,0.0,4.0,4.0,4.0,4.0,4.0,4.0
77.0,0.0,4186.666666666668,4227.179487179489,4137.94871794872,4185.128205128207,4178.97435897436,4173.846153846155,4168.20512820513,4184.102564102565,4184.102564102565,4184.102564102565,4175.384615384617,4201.0256410256425,4173.333333333335,4170.769230769232,349.0,2047.0,2048.0,0.0,0.0,4.0,4.0,4.0,4.0,0.0,4.0,4.0,4.0,4.0,0.0,4.0,4.0,4.0,4.0,4.0,4.0
78.0,0.0,4186.153846153848,4220.000000000002,4216.410256410258,4186.666666666668,4203.076923076925,4183.589743589745,4206.153846153848,4190.256410256412,4187.692307692309,4181.538461538463,4183.076923076925,4197.94871794872,4182.564102564104,4180.512820512822,865.0,2047.0,2048.0,0.0,0.0,4.0,4.0,4.0,4.0,0.0,4.0,4.0,4.0,4.0,0.0,4.0,4.0,4.0,4.0,4.0,4.0
79.0,0.0,4186.666666666668,4221.538461538463,4243.076923076925,4194.871794871797,4203.589743589745,4184.615384615386,4205.641025641027,4183.589743589745,4185.641025641027,4183.589743589745,4186.666666666668,4204.615384615386,4183.589743589745,4188.20512820513,831.0,2047.0,2048.0,0.0,0.0,4.0,4.0,4.0,4.0,0.0,4.0,4.0,4.0,4.0,0.0,4.0,4.0,4.0,4.0,4.0,4.0
80.0,0.0,4181.0256410256425,4221.538461538463,4176.923076923078,4195.384615384617,4179.487179487181,4180.000000000002,4174.3589743589755,4174.3589743589755,4176.923076923078,4186.666666666668,4175.897435897437,4200.512820512822,4173.333333333335,4177.94871794872,851.0,2047.0,2048.0,0.0,0.0,4.0,4.0,4.0,4.0,0.0,4.0,4.0,4.0,4.0,0.0,4.0,4.0,4.0,4.0,4.0,4.0
81.0,0.0,4176.923076923078,4213.846153846155,4128.71794871795,4187.692307692309,4168.71794871795,4181.538461538463,4170.769230769232,4178.97435897436,4178.46153846154,4186.153846153848,4166.153846153848,4197.94871794872,4167.179487179489,4164.615384615386,349.0,2047.0,2048.0,0.0,0.0,4.0,4.0,4.0,4.0,0.0,4.0,4.0,4.0,4.0,0.0,4.0,4.0,4.0,4.0,4.0,4.0
82.0,0.0,4178.46153846154,4215.384615384617,4170.256410256412,4190.769230769232,4183.589743589745,4183.589743589745,4187.179487179489,4188.71794871795,4188.71794871795,4184.615384615386,4178.97435897436,4205.641025641027,4175.384615384617,4174.871794871797,865.0,2047.0,2048.0,0.0,0.0,4.0,4.0,4.0,4.0,0.0,4.0,4.0,4.0,4.0,0.0,4.0,4.0,4.0,4.0,4.0,4.0
83.0,0.0,4176.923076923078,4223.076923076925,4208.71794871795,4196.923076923078,4193.333333333335,4183.589743589745,4189.743589743592,4184.615384615386,4185.641025641027,4185.128205128207,4183.589743589745,4200.000000000002,4176.923076923078,4178.46153846154,831.0,2047.0,2048.0,0.0,0.0,4.0,4.0,4.0,4.0,0.0,4.0,4.0,4.0,4.0,0.0,4.0,4.0,4.0,4.0,4.0,4.0
84.0,0.0,4180.512820512822,4227.179487179489,4195.384615384617,4197.435897435899,4187.692307692309,4186.153846153848,4182.564102564104,4180.000000000002,4180.512820512822,4185.641025641027,4175.897435897437,4201.538461538463,4172.8205128205145,4171.794871794873,851.0,2047.0,2048.0,0.0,0.0,4.0,4.0,4.0,4.0,0.0,4.0,4.0,4.0,4.0,0.0,4.0,4.0,4.0,4.0,4.0,4.0
85.0,0.0,4189.743589743592,4228.20512820513,4174.871794871797,4200.512820512822,4179.487179487181,4187.692307692309,4184.615384615386,4190.769230769232,4193.333333333335,4182.564102564104,4182.564102564104,4206.153846153848,4183.589743589745,4179.487179487181,349.0,2047.0,2048.0,0.0,0.0,4.0,4.0,4.0,4.0,0.0,4.0,4.0,4.0,4.0,0.0,4.0,4.0,4.0,4.0,4.0,4.0
86.0,0.0,4194.871794871797,4228.20512820513,4178.97435897436,4199.487179487181,4182.564102564104,4185.641025641027,4190.769230769232,4201.538461538463,4201.538461538463,4181.538461538463,4189.23076923077,4207.692307692309,4185.641025641027,4190.256410256412,865.0,2047.0,2048.0,0.0,0.0,4.0,4.0,4.0,4.0,0.0,4.0,4.0,4.0,4.0,0.0,4.0,4.0,4.0,4.0,4.0,4.0
87.0,0.0,4191.282051282053,4222.051282051283,4182.051282051283,4193.333333333335,4185.128205128207,4183.589743589745,4187.692307692309,4196.410256410258,4191.794871794873,4185.128205128207,4185.128205128207,4210.769230769232,4175.897435897437,4187.179487179489,831.0,2047.0,2048.0,0.0,0.0,4.0,4.0,4.0,4.0,0.0,4.0,4.0,4.0,4.0,0.0,4.0,4.0,4.0,4.0,4.0,4.0
88.0,0.0,4188.71794871795,4220.512820512822,4182.051282051283,4196.410256410258,4183.589743589745,4184.615384615386,4189.23076923077,4188.20512820513,4185.128205128207,4186.153846153848,4187.692307692309,4207.179487179489,4180.000000000002,4186.666666666668,851.0,2047.0,2048.0,0.0,0.0,4.0,4.0,4.0,4.0,0.0,4.0,4.0,4.0,4.0,0.0,4.0,4.0,4.0,4.0,4.0,4.0
89.0,0.0,4187.692307692309,4218.97435897436,4203.076923076925,4201.0256410256425,4189.23076923077,4186.666666666668,4199.487179487181,4191.794871794873,4189.23076923077,4183.589743589745,4191.282051282053,4210.256410256412,4184.102564102565,4188.71794871795,349.0,2047.0,2048.0,0.0,0.0,4.0,4.0,4.0,4.0,0.0,4.0,4.0,4.0,4.0,0.0,4.0,4.0,4.0,4.0,4.0,4.0
90.0,0.0,4182.051282051283,4209.23076923077,4194.3589743589755,4197.435897435899,4186.153846153848,4186.153846153848,4196.410256410258,4198.97435897436,4191.282051282053,4184.615384615386,4185.641025641027,4208.20512820513,4177.435897435899,4183.076923076925,865.0,2047.0,2048.0,0.0,0.0,4.0,4.0,4.0,4.0,0.0,4.0,4.0,4.0,4.0,0.0,4.0,4.0,4.0,4.0,4.0,4.0
91.0,0.0,4175.384615384617,4206.666666666668,4152.8205128205145,4197.94871794872,4176.410256410258,4186.153846153848,4177.94871794872,4198.46153846154,4186.153846153848,4186.666666666668,4183.589743589745,4205.128205128207,4176.410256410258,4181.0256410256425,831.0,2047.0,2048.0,0.0,0.0,4.0,4.0,4.0,4.0,0.0,4.0,4.0,4.0,4.0,0.0,4.0,4.0,4.0,4.0,4.0,4.0
92.0,0.0,4175.384615384617,4210.256410256412,4154.871794871797,4198.46153846154,4182.564102564104,4186.666666666668,4182.051282051283,4199.487179487181,4186.153846153848,4185.641025641027,4186.666666666668,4208.20512820513,4184.102564102565,4185.128205128207,851.0,2047.0,2048.0,0.0,0.0,4.0,4.0,4.0,4.0,0.0,4.0,4.0,4.0,4.0,0.0,4.0,4.0,4.0,4.0,4.0,4.0
93.0,0.0,4186.153846153848,4215.384615384617,4204.102564102565,4197.435897435899,4196.410256410258,4185.128205128207,4204.102564102565,4201.0256410256425,4195.897435897437,4184.615384615386,4191.794871794873,4205.128205128207,4195.897435897437,4188.71794871795,349.0,2047.0,2048.0,0.0,0.0,4.0,4.0,4.0,4.0,0.0,4.0,4.0,4.0,4.0,0.0,4.0,4.0,4.0,4.0,4.0,4.0
94.0,0.0,4192.8205128205145,4218.97435897436,4223.076923076925,4202.051282051283,4196.410256410258,4185.128205128207,4204.615384615386,4198.97435897436,4199.487179487181,4185.128205128207,4192.8205128205145,4212.8205128205145,4198.46153846154,4191.282051282053,865.0,2047.0,2048.0,0.0,0.0,4.0,4.0,4.0,4.0,0.0,4.0,4.0,4.0,4.0,0.0,4.0,4.0,4.0,4.0,4.0,4.0
95.0,0.0,4182.564102564104,4213.333333333335,4170.256410256412,4196.923076923078,4178.46153846154,4186.153846153848,4185.641025641027,4199.487179487181,4189.23076923077,4185.128205128207,4184.615384615386,4207.179487179489,4185.128205128207,4184.615384615386,831.0,2047.0,2048.0,0.0,0.0,4.0,4.0,4.0,4.0,0.0,4.0,4.0,4.0,4.0,0.0,4.0,4.0,4.0,4.0,4.0,4.0
96.0,0.0,4174.871794871797,4205.128205128207,4137.435897435899,4185.641025641027,4173.846153846155,4183.589743589745,4178.97435897436,4198.46153846154,4182.564102564104,4185.128205128207,4181.538461538463,4197.94871794872,4178.97435897436,4177.94871794872,851.0,2047.0,2048.0,0.0,0.0,4.0,4.0,4.0,4.0,0.0,4.0,4.0,4.0,4.0,0.0,4.0,4.0,4.0,4.0,4.0,4.0
97.0,0.0,4179.487179487181,4203.076923076925,4186.153846153848,4186.153846153848,4189.743589743592,4182.051282051283,4197.435897435899,4198.46153846154,4191.794871794873,4185.128205128207,4189.23076923077,4206.666666666668,4187.179487179489,4183.076923076925,349.0,2047.0,2048.0,0.0,0.0,4.0,4.0,4.0,4.0,0.0,4.0,4.0,4.0,4.0,0.0,4.0,4.0,4.0,4.0,4.0,4.0
98.0,0.0,4180.512820512822,4206.666666666668,4215.897435897437,4191.282051282053,4194.871794871797,4185.641025641027,4206.666666666668,4203.076923076925,4201.0256410256425,4184.102564102565,4191.282051282053,4205.641025641027,4190.769230769232,4186.153846153848,865.0,2047.0,2048.0,0.0,0.0,4.0,4.0,4.0,4.0,0.0,4.0,4.0,4.0,4.0,0.0,4.0,4.0,4.0,4.0,4.0,4.0
99.0,0.0,4174.871794871797,4201.538461538463,4184.102564102565,4189.23076923077,4184.615384615386,4184.102564102565,4186.666666666668,4197.435897435899,4194.871794871797,4184.102564102565,4184.102564102565,4203.589743589745,4185.128205128207,4176.923076923078,831.0,2047.0,2048.0,0.0,0.0,4.0,4.0,4.0,4.0,0.0,4.0,4.0,4.0,4.0,0.0,4.0,4.0,4.0,4.0,4.0,4.0
100.0,0.0,4171.282051282053,4196.410256410258,4162.564102564104,4182.564102564104,4177.94871794872,4180.512820512822,4178.97435897436,4189.743589743592,4184.615384615386,4184.615384615386,4180.512820512822,4202.051282051283,4181.0256410256425,4173.333333333335,851.0,2047.0,2048.0,0.0,0.0,4.0,4.0,4.0,4.0,0.0,4.0,4.0,4.0,4.0,0.0,4.0,4.0,4.0,4.0,4.0,4.0
101.0,0.0,4177.94871794872,4207.179487179489,4172.307692307694,4183.589743589745,4183.076923076925,4185.128205128207,4191.282051282053,4194.3589743589755,4187.692307692309,4185.128205128207,4185.128205128207,4203.589743589745,4188.71794871795,4183.076923076925,349.0,2047.0,2048.0,0.0,0.0,4.0,4.0,4.0,4.0,0.0,4.0,4.0,4.0,4.0,0.0,4.0,4.0,4.0,4.0,4.0,4.0
102.0,0.0,4191.282051282053,4217.94871794872,4162.564102564104,4195.897435897437,4180.000000000002,4188.71794871795,4180.000000000002,4195.897435897437,4191.282051282053,4184.615384615386,4195.384615384617,4213.333333333335,4202.564102564104,4190.769230769232,865.0,2047.0,2048.0,0.0,0.0,4.0,4.0,4.0,4.0,0.0,4.0,4.0,4.0,4.0,0.0,4.0,4.0,4.0,4.0,4.0,4.0
103.0,0.0,4188.20512820513,4216.923076923078,4155.897435897437,4200.512820512822,4174.3589743589755,4178.97435897436,4167.179487179489,4190.769230769232,4186.153846153848,4185.128205128207,4198.97435897436,4205.128205128207,4196.410256410258,4187.692307692309,831.0,2047.0,2048.0,0.0,0.0,4.0,4.0,4.0,4.0,0.0,4.0,4.0,4.0,4.0,0.0,4.0,4.0,4.0,4.0,4.0,4.0
104.0,0.0,4177.435897435899,4212.8205128205145,4201.538461538463,4190.256410256412,4195.897435897437,4180.000000000002,4200.512820512822,4198.46153846154,4191.794871794873,4186.153846153848,4193.333333333335,4203.076923076925,4181.0256410256425,4183.076923076925,851.0,2047.0,2048.0,0.0,0.0,4.0,4.0,4.0,4.0,0.0,4.0,4.0,4.0,4.0,0.0,4.0,4.0,4.0,4.0,4.0,4.0
105.0,0.0,4176.410256410258,4212.307692307694,4224.615384615386,4186.153846153848,4202.564102564104,4195.897435897437,4224.615384615386,4210.769230769232,4206.153846153848,4185.641025641027,4195.897435897437,4211.794871794873,4189.743589743592,4183.076923076925,349.0,2047.0,2048.0,0.0,0.0,4.0,4.0,4.0,4.0,0.0,4.0,4.0,4.0,4.0,0.0,4.0,4.0,4.0,4.0,4.0,4.0
106.0,0.0,4183.589743589745,4215.897435897437,4173.846153846155,4196.923076923078,4175.384615384617,4194.871794871797,4191.794871794873,4200.000000000002,4201.0256410256425,4184.615384615386,4198.46153846154,4211.282051282053,4198.46153846154,4185.128205128207,865.0,2047.0,2048.0,0.0,0.0,4.0,4.0,4.0,4.0,0.0,4.0,4.0,4.0,4.0,0.0,4.0,4.0,4.0,4.0,4.0,4.0
107.0,0.0,4188.71794871795,4220.000000000002,4136.923076923078,4203.076923076925,4166.666666666668,4184.102564102565,4167.692307692309,4190.256410256412,4187.179487179489,4185.128205128207,4191.794871794873,4212.307692307694,4187.179487179489,4187.179487179489,831.0,2047.0,2048.0,0.0,0.0,4.0,4.0,4.0,4.0,0.0,4.0,4.0,4.0,4.0,0.0,4.0,4.0,4.0,4.0,4.0,4.0
108.0,0.0,4183.589743589745,4213.846153846155,4166.153846153848,4194.3589743589755,4185.641025641027,4184.615384615386,4189.23076923077,4195.384615384617,4184.615384615386,4185.128205128207,4190.769230769232,4207.692307692309,4188.71794871795,4186.666666666668,851.0,2047.0,2048.0,0.0,0.0,4.0,4.0,4.0,4.0,0.0,4.0,4.0,4.0,4.0,0.0,4.0,4.0,4.0,4.0,4.0,4.0
109.0,0.0,4185.128205128207,4213.333333333335,4222.051282051283,4190.769230769232,4204.615384615386,4187.692307692309,4209.743589743592,4192.8205128205145,4188.71794871795,4184.615384615386,4201.538461538463,4210.256410256412,4205.641025641027,4190.256410256412,349.0,2047.0,2048.0,0.0,0.0,4.0,4.0,4.0,4.0,0.0,4.0,4.0,4.0,4.0,0.0,4.0,4.0,4.0,4.0,4.0,4.0
110.0,0.0,4194.871794871797,4224.615384615386,4224.615384615386,4198.46153846154,4195.384615384617,4191.794871794873,4205.641025641027,4186.666666666668,4192.307692307694,4184.615384615386,4205.128205128207,4213.846153846155,4209.23076923077,4197.94871794872,865.0,2047.0,2048.0,0.0,0.0,4.0,4.0,4.0,4.0,0.0,4.0,4.0,4.0,4.0,0.0,4.0,4.0,4.0,4.0,4.0,4.0
111.0,0.0,4197.435897435899,4228.20512820513,4144.102564102565,4204.615384615386,4162.564102564104,4195.384615384617,4182.051282051283,4196.410256410258,4196.923076923078,4185.128205128207,4200.512820512822,4209.743589743592,4202.051282051283,4198.97435897436,831.0,2047.0,2048.0,0.0,0.0,4.0,4.0,4.0,4.0,0.0,4.0,4.0,4.0,4.0,0.0,4.0,4.0,4.0,4.0,4.0,4.0
112.0,0.0,4190.769230769232,4222.564102564104,4105.128205128207,4202.051282051283,4156.923076923078,4191.794871794873,4169.743589743592,4212.8205128205145,4201.0256410256425,4185.128205128207,4202.564102564104,4214.3589743589755,4198.46153846154,4194.871794871797,851.0,2047.0,2048.0,0.0,0.0,4.0,4.0,4.0,4.0,0.0,4.0,4.0,4.0,4.0,0.0,4.0,4.0,4.0,4.0,4.0,4.0
113.0,0.0,4181.0256410256425,4212.8205128205145,4199.487179487181,4193.333333333335,4201.538461538463,4189.23076923077,4205.641025641027,4209.23076923077,4203.076923076925,4184.102564102565,4201.538461538463,4208.20512820513,4194.3589743589755,4186.666666666668,349.0,2047.0,2048.0,0.0,0.0,4.0,4.0,4.0,4.0,0.0,4.0,4.0,4.0,4.0,0.0,4.0,4.0,4.0,4.0,4.0,4.0
114.0,0.0,4178.97435897436,4212.307692307694,4297.435897435899,4191.794871794873,4232.8205128205145,4194.871794871797,4237.94871794872,4198.46153846154,4195.384615384617,4185.128205128207,4187.692307692309,4205.128205128207,4185.641025641027,4176.923076923078,865.0,2047.0,2048.0,0.0,0.0,4.0,4.0,4.0,4.0,0.0,4.0,4.0,4.0,4.0,0.0,4.0,4.0,4.0,4.0,4.0,4.0
115.0,0.0,4175.897435897437,4212.8205128205145,4206.666666666668,4193.333333333335,4185.128205128207,4196.923076923078,4200.512820512822,4199.487179487181,4188.71794871795,4185.128205128207,4178.46153846154,4208.20512820513,4180.000000000002,4173.333333333335,831.0,2047.0,2048.0,0.0,0.0,4.0,4.0,4.0,4.0,0.0,4.0,4.0,4.0,4.0,0.0,4.0,4.0,4.0,4.0,4.0,4.0
116.0,0.0,4170.256410256412,4205.128205128207,4036.9230769230785,4189.23076923077,4127.179487179489,4189.743589743592,4146.153846153848,4202.564102564104,4191.794871794873,4185.128205128207,4189.743589743592,4205.128205128207,4190.256410256412,4182.051282051283,851.0,2047.0,2048.0,0.0,0.0,4.0,4.0,4.0,4.0,0.0,4.0,4.0,4.0,4.0,0.0,4.0,4.0,4.0,4.0,4.0,4.0
117.0,0.0,4182.051282051283,4206.666666666668,4082.564102564104,4193.846153846155,4160.512820512822,4183.589743589745,4159.487179487181,4200.000000000002,4192.307692307694,4186.666666666668,4206.666666666668,4213.846153846155,4208.71794871795,4192.307692307694,349.0,2047.0,2048.0,0.0,0.0,4.0,4.0,4.0,4.0,0.0,4.0,4.0,4.0,4.0,0.0,4.0,4.0,4.0,4.0,4.0,4.0
118.0,0.0,4187.179487179489,4216.923076923078,4265.641025641027,4204.102564102565,4228.20512820513,4191.794871794873,4219.487179487181,4196.923076923078,4185.128205128207,4185.641025641027,4197.435897435899,4211.282051282053,4204.102564102565,4185.128205128207,865.0,2047.0,2048.0,0.0,0.0,4.0,4.0,4.0,4.0,0.0,4.0,4.0,4.0,4.0,0.0,4.0,4.0,4.0,4.0,4.0,4.0
119.0,0.0,4176.923076923078,4218.46153846154,4297.435897435899,4203.076923076925,4226.153846153848,4204.615384615386,4241.0256410256425,4201.538461538463,4190.256410256412,4184.102564102565,4180.000000000002,4203.589743589745,4187.692307692309,4176.410256410258,831.0,2047.0,2048.0,0.0,0.0,4.0,4.0,4.0,4.0,0.0,4.0,4.0,4.0,4.0,0.0,4.0,4.0,4.0,4.0,4.0,4.0
120.0,0.0,4186.153846153848,4214.871794871797,4168.20512820513,4202.564102564104,4168.20512820513,4202.564102564104,4197.435897435899,4211.282051282053,4203.076923076925,4185.641025641027,4193.846153846155,4209.23076923077,4204.615384615386,4190.769230769232,851.0,2047.0,2048.0,0.0,0.0,4.0,4.0,4.0,4.0,0.0,4.0,4.0,4.0,4.0,0.0,4.0,4.0,4.0,4.0,4.0,4.0
121.0,0.0,4195.897435897437,4217.435897435899,4090.7692307692323,4209.743589743592,4146.153846153848,4196.923076923078,4168.71794871795,4217.94871794872,4204.102564102565,4187.179487179489,4216.410256410258,4211.282051282053,4229.743589743592,4206.153846153848,349.0,2047.0,2048.0,0.0,0.0,4.0,4.0,4.0,4.0,0.0,4.0,4.0,4.0,4.0,0.0,4.0,4.0,4.0,4.0,4.0,4.0
122.0,0.0,4191.282051282053,4222.051282051283,4166.666666666668,4212.307692307694,4185.641025641027,4204.615384615386,4203.076923076925,4218.97435897436,4200.512820512822,4185.128205128207,4211.282051282053,4213.846153846155,4223.076923076925,4202.051282051283,865.0,2047.0,2048.0,0.0,0.0,4.0,4.0,4.0,4.0,0.0,4.0,4.0,4.0,4.0,0.0,4.0,4.0,4.0,4.0,4.0,4.0
123.0,0.0,4200.512820512822,4233.333333333335,4257.94871794872,4212.8205128205145,4209.743589743592,4203.589743589745,4225.128205128207,4214.3589743589755,4202.564102564104,4183.076923076925,4203.589743589745,4211.282051282053,4218.46153846154,4199.487179487181,831.0,2047.0,2048.0,0.0,0.0,4.0,4.0,4.0,4.0,0.0,4.0,4.0,4.0,4.0,0.0,4.0,4.0,4.0,4.0,4.0,4.0
124.0,0.0,4207.179487179489,4235.384615384617,4242.051282051283,4211.794871794873,4193.846153846155,4190.256410256412,4202.051282051283,4208.20512820513,4203.076923076925,4184.615384615386,4202.051282051283,4212.307692307694,4220.000000000002,4200.000000000002,851.0,2047.0,2048.0,0.0,0.0,4.0,4.0,4.0,4.0,0.0,4.0,4.0,4.0,4.0,0.0,4.0,4.0,4.0,4.0,4.0,4.0
125.0,0.0,4185.641025641027,4214.871794871797,4183.076923076925,4201.538461538463,4182.051282051283,4183.589743589745,4194.871794871797,4205.128205128207,4200.000000000002,4186.153846153848,4189.743589743592,4212.307692307694,4203.076923076925,4187.179487179489,349.0,2047.0,2048.0,0.0,0.0,4.0,4.0,4.0,4.0,0.0,4.0,4.0,4.0,4.0,0.0,4.0,4.0,4.0,4.0,4.0,4.0
126.0,0.0,4175.897435897437,4208.71794871795,4176.923076923078,4194.871794871797,4183.589743589745,4185.128205128207,4203.076923076925,4200.512820512822,4192.307692307694,4186.153846153848,4187.179487179489,4205.128205128207,4201.0256410256425,4185.128205128207,865.0,2047.0,2048.0,0.0,0.0,4.0,4.0,4.0,4.0,0.0,4.0,4.0,4.0,4.0,0.0,4.0,4.0,4.0,4.0,4.0,4.0
127.0,0.0,4201.0256410256425,4229.743589743592,4171.282051282053,4209.23076923077,4175.897435897437,4188.20512820513,4179.487179487181,4197.435897435899,4188.20512820513,4184.615384615386,4203.589743589745,4216.923076923078,4226.153846153848,4205.641025641027,831.0,2047.0,2048.0,0.0,0.0,4.0,4.0,4.0,4.0,0.0,4.0,4.0,4.0,4.0,0.0,4.0,4.0,4.0,4.0,4.0,4.0
128.0,0.0,4204.615384615386,4235.897435897437,4123.589743589745,4220.000000000002,4159.487179487181,4195.897435897437,4165.641025641027,4205.128205128207,4198.97435897436,4184.615384615386,4208.71794871795,4218.46153846154,4224.102564102565,4209.23076923077,851.0,2047.0,2048.0,0.0,0.0,4.0,4.0,4.0,4.0,0.0,4.0,4.0,4.0,4.0,0.0,4.0,4.0,4.0,4.0,4.0,4.0
0.0,0.0,4183.076923076925,4218.46153846154,4168.20512820513,4205.128205128207,4187.692307692309,4202.564102564104,4208.71794871795,4209.743589743592,4198.97435897436,4185.128205128207,4194.3589743589755,4206.153846153848,4195.384615384617,4187.692307692309,687.0,2047.0,2048.0,0.0,0.0,4.0,4.0,4.0,4.0,0.0,4.0,4.0,4.0,4.0,0.0,4.0,4.0,4.0,4.0,4.0,4.0
1.0,0.0,4175.897435897437,4211.282051282053,4280.512820512822,4187.179487179489,4234.3589743589755,4201.538461538463,4246.153846153848,4196.923076923078,4183.076923076925,4184.615384615386,4179.487179487181,4206.666666666668,4185.641025641027,4178.97435897436,829.0,2047.0,2048.0,0.0,0.0,4.0,4.0,4.0,4.0,0.0,4.0,4.0,4.0,4.0,0.0,4.0,4.0,4.0,4.0,4.0,4.0
2.0,0.0,4174.3589743589755,4207.692307692309,4246.666666666668,4185.128205128207,4210.256410256412,4196.923076923078,4221.0256410256425,4193.846153846155,4186.153846153848,4186.153846153848,4175.897435897437,4206.666666666668,4186.666666666668,4178.97435897436,804.0,2047.0,2048.0,0.0,0.0,4.0,4.0,4.0,4.0,0.0,4.0,4.0,4.0,4.0,0.0,4.0,4.0,4.0,4.0,4.0,4.0
3.0,0.0,4171.794871794873,4200.512820512822,4104.102564102565,4188.20512820513,4151.794871794873,4189.23076923077,4172.307692307694,4202.564102564104,4201.538461538463,4186.666666666668,4181.0256410256425,4209.743589743592,4185.128205128207,4175.384615384617,796.0,2047.0,2048.0,0.0,0.0,4.0,4.0,4.0,4.0,0.0,4.0,4.0,4.0,4.0,0.0,4.0,4.0,4.0,4.0,4.0,4.0
4.0,0.0,4173.333333333335,4205.641025641027,4076.9230769230785,4189.743589743592,4148.20512820513,4183.589743589745,4165.128205128207,4200.000000000002,4199.487179487181,4184.615384615386,4185.641025641027,4206.153846153848,4192.8205128205145,4179.487179487181,0.0,2047.0,2048.0,0.0,0.0,4.0,4.0,4.0,4.0,0.0,4.0,4.0,4.0,4.0,0.0,4.0,4.0,4.0,4.0,4.0,4.0
5.0,0.0,4178.97435897436,4212.8205128205145,4195.897435897437,4197.94871794872,4196.410256410258,4186.153846153848,4199.487179487181,4192.8205128205145,4189.23076923077,4184.102564102565,4187.179487179489,4202.051282051283,4203.076923076925,4182.564102564104,783.0,2047.0,2048.0,0.0,0.0,4.0,4.0,4.0,4.0,0.0,4.0,4.0,4.0,4.0,0.0,4.0,4.0,4.0,4.0,4.0,4.0
6.0,0.0,4180.000000000002,4210.769230769232,4278.97435897436,4200.000000000002,4221.538461538463,4185.641025641027,4211.794871794873,4184.102564102565,4184.615384615386,4185.641025641027,4185.128205128207,4206.666666666668,4197.94871794872,4180.000000000002,803.0,2047.0,2048.0,0.0,0.0,4.0,4.0,4.0,4.0,0.0,4.0,4.0,4.0,4.0,0.0,4.0,4.0,4.0,4.0,4.0,4.0
7.0,0.0,4177.435897435899,4208.20512820513,4217.94871794872,4196.923076923078,4191.794871794873,4182.051282051283,4184.615384615386,4175.897435897437,4182.051282051283,4185.641025641027,4181.538461538463,4200.000000000002,4190.256410256412,4177.435897435899,818.0,2047.0,2048.0,0.0,0.0,4.0,4.0,4.0,4.0,0.0,4.0,4.0,4.0,4.0,0.0,4.0,4.0,4.0,4.0,4.0,4.0
8.0,0.0,4184.102564102565,4213.846153846155,4130.256410256412,4202.564102564104,4162.051282051283,4185.128205128207,4168.71794871795,4180.512820512822,4181.538461538463,4185.128205128207,4182.564102564104,4205.641025641027,4193.846153846155,4182.051282051283,648.0,2047.0,2048.0,0.0,0.0,4.0,4.0,4.0,4.0,0.0,4.0,4.0,4.0,4.0,0.0,4.0,4.0,4.0,4.0,4.0,4.0
9.0,0.0,4186.666666666668,4218.46153846154,4134.871794871797,4207.179487179489,4168.71794871795,4187.179487179489,4183.076923076925,4190.256410256412,4186.153846153848,4185.128205128207,4186.153846153848,4209.743589743592,4197.94871794872,4184.615384615386,0.0,2047.0,2048.0,0.0,0.0,4.0,4.0,4.0,4.0,0.0,4.0,4.0,4.0,4.0,0.0,4.0,4.0,4.0,4.0,4.0,4.0
10.0,0.0,4178.46153846154,4212.307692307694,4201.0256410256425,4203.589743589745,4196.410256410258,4185.128205128207,4201.0256410256425,4192.307692307694,4188.71794871795,4184.615384615386,4182.564102564104,4202.564102564104,4194.871794871797,4180.512820512822,863.0,2047.0,2048.0,0.0,0.0,4.0,4.0,4.0,4.0,0.0,4.0,4.0,4.0,4.0,0.0,4.0,4.0,4.0,4.0,4.0,4.0
11.0,0.0,4173.846153846155,4205.641025641027,4235.384615384617,4201.538461538463,4205.641025641027,4185.641025641027,4205.641025641027,4184.102564102565,4183.589743589745,4185.641025641027,4176.410256410258,4205.641025641027,4189.743589743592,4174.871794871797,828.0,2047.0,2048.0,0.0,0.0,4.0,4.0,4.0,4.0,0.0,4.0,4.0,4.0,4.0,0.0,4.0,4.0,4.0,4.0,4.0,4.0
12.0,0.0,4179.487179487181,4207.692307692309,4193.846153846155,4200.512820512822,4182.564102564104,4184.102564102565,4190.769230769232,4180.512820512822,4179.487179487181,4184.615384615386,4175.897435897437,4201.538461538463,4189.23076923077,4173.333333333335,851.0,2047.0,2048.0,0.0,0.0,4.0,4.0,4.0,4.0,0.0,4.0,4.0,4.0,4.0,0.0,4.0,4.0,4.0,4.0,4.0,4.0
13.0,0.0,4188.20512820513,4214.871794871797,4149.743589743592,4197.94871794872,4167.692307692309,4182.051282051283,4180.000000000002,4193.333333333335,4188.71794871795,4184.615384615386,4181.538461538463,4201.0256410256425,4196.410256410258,4180.512820512822,349.0,2047.0,2048.0,0.0,0.0,4.0,4.0,4.0,4.0,0.0,4.0,4.0,4.0,4.0,0.0,4.0,4.0,4.0,4.0,4.0,4.0
14.0,0.0,4191.794871794873,4221.538461538463,4167.692307692309,4203.589743589745,4175.897435897437,4183.589743589745,4194.3589743589755,4203.076923076925,4195.897435897437,4185.128205128207,4191.794871794873,4206.666666666668,4207.179487179489,4190.256410256412,863.0,2047.0,2048.0,0.0,0.0,4.0,4.0,4.0,4.0,0.0,4.0,4.0,4.0,4.0,0.0,4.0,4.0,4.0,4.0,4.0,4.0
15.0,0.0,4193.846153846155,4226.666666666668,4202.051282051283,4211.794871794873,4184.615384615386,4186.153846153848,4201.538461538463,4190.769230769232,4189.743589743592,4184.102564102565,4195.897435897437,4205.128205128207,4211.282051282053,4194.3589743589755,828.0,2047.0,2048.0,0.0,0.0,4.0,4.0,4.0,4.0,0.0,4.0,4.0,4.0,4.0,0.0,4.0,4.0,4.0,4.0,4.0,4.0
